#  E (eV)   dos(E)     Int dos(E) EFermi =   -1.608 eV
 -21.583  0.6424E-04  0.6424E-06
 -21.573  0.1545E-03  0.2188E-05
 -21.563  0.3563E-03  0.5750E-05
 -21.553  0.7875E-03  0.1363E-04
 -21.543  0.1669E-02  0.3032E-04
 -21.533  0.3391E-02  0.6423E-04
 -21.523  0.6609E-02  0.1303E-03
 -21.513  0.1235E-01  0.2538E-03
 -21.503  0.2214E-01  0.4753E-03
 -21.493  0.3809E-01  0.8561E-03
 -21.483  0.6288E-01  0.1485E-02
 -21.473  0.9963E-01  0.2481E-02
 -21.463  0.1516E+00  0.3997E-02
 -21.453  0.2216E+00  0.6213E-02
 -21.443  0.3113E+00  0.9326E-02
 -21.433  0.4204E+00  0.1353E-01
 -21.423  0.5463E+00  0.1899E-01
 -21.413  0.6836E+00  0.2583E-01
 -21.403  0.8244E+00  0.3407E-01
 -21.393  0.9594E+00  0.4367E-01
 -21.383  0.1079E+01  0.5445E-01
 -21.373  0.1174E+01  0.6620E-01
 -21.363  0.1239E+01  0.7859E-01
 -21.353  0.1272E+01  0.9131E-01
 -21.343  0.1273E+01  0.1040E+00
 -21.333  0.1247E+01  0.1165E+00
 -21.323  0.1200E+01  0.1285E+00
 -21.313  0.1138E+01  0.1399E+00
 -21.303  0.1070E+01  0.1506E+00
 -21.293  0.1001E+01  0.1606E+00
 -21.283  0.9341E+00  0.1699E+00
 -21.273  0.8736E+00  0.1787E+00
 -21.263  0.8200E+00  0.1869E+00
 -21.253  0.7736E+00  0.1946E+00
 -21.243  0.7338E+00  0.2020E+00
 -21.233  0.6998E+00  0.2090E+00
 -21.223  0.6706E+00  0.2157E+00
 -21.213  0.6453E+00  0.2221E+00
 -21.203  0.6231E+00  0.2283E+00
 -21.193  0.6035E+00  0.2344E+00
 -21.183  0.5858E+00  0.2402E+00
 -21.173  0.5698E+00  0.2459E+00
 -21.163  0.5551E+00  0.2515E+00
 -21.153  0.5416E+00  0.2569E+00
 -21.143  0.5290E+00  0.2622E+00
 -21.133  0.5174E+00  0.2674E+00
 -21.123  0.5066E+00  0.2724E+00
 -21.113  0.4965E+00  0.2774E+00
 -21.103  0.4870E+00  0.2823E+00
 -21.093  0.4781E+00  0.2871E+00
 -21.083  0.4695E+00  0.2917E+00
 -21.073  0.4613E+00  0.2964E+00
 -21.063  0.4535E+00  0.3009E+00
 -21.053  0.4461E+00  0.3054E+00
 -21.043  0.4393E+00  0.3097E+00
 -21.033  0.4330E+00  0.3141E+00
 -21.023  0.4271E+00  0.3183E+00
 -21.013  0.4214E+00  0.3226E+00
 -21.003  0.4157E+00  0.3267E+00
 -20.993  0.4099E+00  0.3308E+00
 -20.983  0.4040E+00  0.3349E+00
 -20.973  0.3983E+00  0.3388E+00
 -20.963  0.3930E+00  0.3428E+00
 -20.953  0.3883E+00  0.3467E+00
 -20.943  0.3842E+00  0.3505E+00
 -20.933  0.3807E+00  0.3543E+00
 -20.923  0.3774E+00  0.3581E+00
 -20.913  0.3739E+00  0.3618E+00
 -20.903  0.3700E+00  0.3655E+00
 -20.893  0.3654E+00  0.3692E+00
 -20.883  0.3604E+00  0.3728E+00
 -20.873  0.3553E+00  0.3763E+00
 -20.863  0.3506E+00  0.3798E+00
 -20.853  0.3470E+00  0.3833E+00
 -20.843  0.3445E+00  0.3867E+00
 -20.833  0.3432E+00  0.3902E+00
 -20.823  0.3424E+00  0.3936E+00
 -20.813  0.3415E+00  0.3970E+00
 -20.803  0.3394E+00  0.4004E+00
 -20.793  0.3357E+00  0.4038E+00
 -20.783  0.3304E+00  0.4071E+00
 -20.773  0.3242E+00  0.4103E+00
 -20.763  0.3182E+00  0.4135E+00
 -20.753  0.3136E+00  0.4166E+00
 -20.743  0.3113E+00  0.4197E+00
 -20.733  0.3117E+00  0.4229E+00
 -20.723  0.3140E+00  0.4260E+00
 -20.713  0.3168E+00  0.4292E+00
 -20.703  0.3184E+00  0.4324E+00
 -20.693  0.3174E+00  0.4355E+00
 -20.683  0.3129E+00  0.4387E+00
 -20.673  0.3055E+00  0.4417E+00
 -20.663  0.2964E+00  0.4447E+00
 -20.653  0.2879E+00  0.4476E+00
 -20.643  0.2819E+00  0.4504E+00
 -20.633  0.2799E+00  0.4532E+00
 -20.623  0.2822E+00  0.4560E+00
 -20.613  0.2879E+00  0.4589E+00
 -20.603  0.2948E+00  0.4618E+00
 -20.593  0.3004E+00  0.4648E+00
 -20.583  0.3024E+00  0.4679E+00
 -20.573  0.2996E+00  0.4708E+00
 -20.563  0.2920E+00  0.4738E+00
 -20.553  0.2810E+00  0.4766E+00
 -20.543  0.2692E+00  0.4793E+00
 -20.533  0.2593E+00  0.4819E+00
 -20.523  0.2537E+00  0.4844E+00
 -20.513  0.2535E+00  0.4869E+00
 -20.503  0.2586E+00  0.4895E+00
 -20.493  0.2672E+00  0.4922E+00
 -20.483  0.2768E+00  0.4950E+00
 -20.473  0.2845E+00  0.4978E+00
 -20.463  0.2881E+00  0.5007E+00
 -20.453  0.2862E+00  0.5035E+00
 -20.443  0.2789E+00  0.5063E+00
 -20.433  0.2677E+00  0.5090E+00
 -20.423  0.2551E+00  0.5116E+00
 -20.413  0.2438E+00  0.5140E+00
 -20.403  0.2360E+00  0.5164E+00
 -20.393  0.2333E+00  0.5187E+00
 -20.383  0.2357E+00  0.5211E+00
 -20.373  0.2424E+00  0.5235E+00
 -20.363  0.2514E+00  0.5260E+00
 -20.353  0.2603E+00  0.5286E+00
 -20.343  0.2670E+00  0.5313E+00
 -20.333  0.2698E+00  0.5340E+00
 -20.323  0.2682E+00  0.5366E+00
 -20.313  0.2624E+00  0.5393E+00
 -20.303  0.2538E+00  0.5418E+00
 -20.293  0.2440E+00  0.5442E+00
 -20.283  0.2348E+00  0.5466E+00
 -20.273  0.2278E+00  0.5489E+00
 -20.263  0.2239E+00  0.5511E+00
 -20.253  0.2232E+00  0.5533E+00
 -20.243  0.2253E+00  0.5556E+00
 -20.233  0.2294E+00  0.5579E+00
 -20.223  0.2343E+00  0.5602E+00
 -20.213  0.2389E+00  0.5626E+00
 -20.203  0.2426E+00  0.5650E+00
 -20.193  0.2448E+00  0.5675E+00
 -20.183  0.2453E+00  0.5699E+00
 -20.173  0.2443E+00  0.5724E+00
 -20.163  0.2420E+00  0.5748E+00
 -20.153  0.2387E+00  0.5772E+00
 -20.143  0.2347E+00  0.5795E+00
 -20.133  0.2303E+00  0.5818E+00
 -20.123  0.2255E+00  0.5841E+00
 -20.113  0.2207E+00  0.5863E+00
 -20.103  0.2160E+00  0.5885E+00
 -20.093  0.2117E+00  0.5906E+00
 -20.083  0.2086E+00  0.5927E+00
 -20.073  0.2071E+00  0.5947E+00
 -20.063  0.2079E+00  0.5968E+00
 -20.053  0.2112E+00  0.5989E+00
 -20.043  0.2168E+00  0.6011E+00
 -20.033  0.2240E+00  0.6033E+00
 -20.023  0.2318E+00  0.6057E+00
 -20.013  0.2386E+00  0.6080E+00
 -20.003  0.2431E+00  0.6105E+00
 -19.993  0.2440E+00  0.6129E+00
 -19.983  0.2407E+00  0.6153E+00
 -19.973  0.2331E+00  0.6177E+00
 -19.963  0.2218E+00  0.6199E+00
 -19.953  0.2082E+00  0.6220E+00
 -19.943  0.1943E+00  0.6239E+00
 -19.933  0.1821E+00  0.6257E+00
 -19.923  0.1738E+00  0.6275E+00
 -19.913  0.1711E+00  0.6292E+00
 -19.903  0.1748E+00  0.6309E+00
 -19.893  0.1846E+00  0.6328E+00
 -19.883  0.1993E+00  0.6348E+00
 -19.873  0.2168E+00  0.6369E+00
 -19.863  0.2340E+00  0.6393E+00
 -19.853  0.2481E+00  0.6417E+00
 -19.843  0.2565E+00  0.6443E+00
 -19.833  0.2574E+00  0.6469E+00
 -19.823  0.2502E+00  0.6494E+00
 -19.813  0.2357E+00  0.6517E+00
 -19.803  0.2158E+00  0.6539E+00
 -19.793  0.1932E+00  0.6558E+00
 -19.783  0.1712E+00  0.6575E+00
 -19.773  0.1530E+00  0.6591E+00
 -19.763  0.1413E+00  0.6605E+00
 -19.753  0.1380E+00  0.6619E+00
 -19.743  0.1440E+00  0.6633E+00
 -19.733  0.1584E+00  0.6649E+00
 -19.723  0.1796E+00  0.6667E+00
 -19.713  0.2044E+00  0.6687E+00
 -19.703  0.2292E+00  0.6710E+00
 -19.693  0.2501E+00  0.6735E+00
 -19.683  0.2639E+00  0.6762E+00
 -19.673  0.2681E+00  0.6788E+00
 -19.663  0.2619E+00  0.6815E+00
 -19.653  0.2462E+00  0.6839E+00
 -19.643  0.2230E+00  0.6862E+00
 -19.633  0.1957E+00  0.6881E+00
 -19.623  0.1680E+00  0.6898E+00
 -19.613  0.1436E+00  0.6912E+00
 -19.603  0.1258E+00  0.6925E+00
 -19.593  0.1166E+00  0.6937E+00
 -19.583  0.1174E+00  0.6948E+00
 -19.573  0.1279E+00  0.6961E+00
 -19.563  0.1468E+00  0.6976E+00
 -19.553  0.1717E+00  0.6993E+00
 -19.543  0.1993E+00  0.7013E+00
 -19.533  0.2258E+00  0.7035E+00
 -19.523  0.2477E+00  0.7060E+00
 -19.513  0.2617E+00  0.7086E+00
 -19.503  0.2659E+00  0.7113E+00
 -19.493  0.2596E+00  0.7139E+00
 -19.483  0.2437E+00  0.7163E+00
 -19.473  0.2205E+00  0.7185E+00
 -19.463  0.1933E+00  0.7205E+00
 -19.453  0.1657E+00  0.7221E+00
 -19.443  0.1412E+00  0.7235E+00
 -19.433  0.1226E+00  0.7248E+00
 -19.423  0.1119E+00  0.7259E+00
 -19.413  0.1102E+00  0.7270E+00
 -19.403  0.1171E+00  0.7282E+00
 -19.393  0.1316E+00  0.7295E+00
 -19.383  0.1518E+00  0.7310E+00
 -19.373  0.1751E+00  0.7327E+00
 -19.363  0.1987E+00  0.7347E+00
 -19.353  0.2197E+00  0.7369E+00
 -19.343  0.2357E+00  0.7393E+00
 -19.333  0.2447E+00  0.7417E+00
 -19.323  0.2459E+00  0.7442E+00
 -19.313  0.2390E+00  0.7466E+00
 -19.303  0.2253E+00  0.7488E+00
 -19.293  0.2064E+00  0.7509E+00
 -19.283  0.1849E+00  0.7527E+00
 -19.273  0.1635E+00  0.7544E+00
 -19.263  0.1447E+00  0.7558E+00
 -19.253  0.1307E+00  0.7571E+00
 -19.243  0.1228E+00  0.7584E+00
 -19.233  0.1215E+00  0.7596E+00
 -19.223  0.1263E+00  0.7608E+00
 -19.213  0.1361E+00  0.7622E+00
 -19.203  0.1492E+00  0.7637E+00
 -19.193  0.1637E+00  0.7653E+00
 -19.183  0.1779E+00  0.7671E+00
 -19.173  0.1904E+00  0.7690E+00
 -19.163  0.2001E+00  0.7710E+00
 -19.153  0.2065E+00  0.7731E+00
 -19.143  0.2092E+00  0.7752E+00
 -19.133  0.2083E+00  0.7773E+00
 -19.123  0.2041E+00  0.7793E+00
 -19.113  0.1970E+00  0.7813E+00
 -19.103  0.1878E+00  0.7831E+00
 -19.093  0.1775E+00  0.7849E+00
 -19.083  0.1672E+00  0.7866E+00
 -19.073  0.1584E+00  0.7882E+00
 -19.063  0.1520E+00  0.7897E+00
 -19.053  0.1486E+00  0.7912E+00
 -19.043  0.1483E+00  0.7927E+00
 -19.033  0.1504E+00  0.7942E+00
 -19.023  0.1538E+00  0.7957E+00
 -19.013  0.1574E+00  0.7973E+00
 -19.003  0.1601E+00  0.7989E+00
 -18.993  0.1614E+00  0.8005E+00
 -18.983  0.1612E+00  0.8021E+00
 -18.973  0.1604E+00  0.8037E+00
 -18.963  0.1596E+00  0.8053E+00
 -18.953  0.1597E+00  0.8069E+00
 -18.943  0.1614E+00  0.8085E+00
 -18.933  0.1645E+00  0.8102E+00
 -18.923  0.1688E+00  0.8118E+00
 -18.913  0.1736E+00  0.8136E+00
 -18.903  0.1781E+00  0.8154E+00
 -18.893  0.1817E+00  0.8172E+00
 -18.883  0.1842E+00  0.8190E+00
 -18.873  0.1855E+00  0.8209E+00
 -18.863  0.1856E+00  0.8227E+00
 -18.853  0.1846E+00  0.8246E+00
 -18.843  0.1821E+00  0.8264E+00
 -18.833  0.1778E+00  0.8282E+00
 -18.823  0.1714E+00  0.8299E+00
 -18.813  0.1627E+00  0.8315E+00
 -18.803  0.1519E+00  0.8330E+00
 -18.793  0.1400E+00  0.8344E+00
 -18.783  0.1283E+00  0.8357E+00
 -18.773  0.1184E+00  0.8369E+00
 -18.763  0.1120E+00  0.8380E+00
 -18.753  0.1103E+00  0.8391E+00
 -18.743  0.1140E+00  0.8403E+00
 -18.733  0.1232E+00  0.8415E+00
 -18.723  0.1369E+00  0.8429E+00
 -18.713  0.1539E+00  0.8444E+00
 -18.703  0.1722E+00  0.8461E+00
 -18.693  0.1900E+00  0.8480E+00
 -18.683  0.2053E+00  0.8501E+00
 -18.673  0.2167E+00  0.8523E+00
 -18.663  0.2231E+00  0.8545E+00
 -18.653  0.2237E+00  0.8567E+00
 -18.643  0.2183E+00  0.8589E+00
 -18.633  0.2074E+00  0.8610E+00
 -18.623  0.1916E+00  0.8629E+00
 -18.613  0.1720E+00  0.8646E+00
 -18.603  0.1503E+00  0.8661E+00
 -18.593  0.1281E+00  0.8674E+00
 -18.583  0.1074E+00  0.8685E+00
 -18.573  0.8984E-01  0.8694E+00
 -18.563  0.7716E-01  0.8701E+00
 -18.553  0.7064E-01  0.8708E+00
 -18.543  0.7117E-01  0.8716E+00
 -18.533  0.7911E-01  0.8724E+00
 -18.523  0.9424E-01  0.8733E+00
 -18.513  0.1157E+00  0.8745E+00
 -18.503  0.1418E+00  0.8759E+00
 -18.493  0.1704E+00  0.8776E+00
 -18.483  0.1987E+00  0.8796E+00
 -18.473  0.2238E+00  0.8818E+00
 -18.463  0.2429E+00  0.8842E+00
 -18.453  0.2537E+00  0.8868E+00
 -18.443  0.2549E+00  0.8893E+00
 -18.433  0.2463E+00  0.8918E+00
 -18.423  0.2289E+00  0.8941E+00
 -18.413  0.2046E+00  0.8961E+00
 -18.403  0.1760E+00  0.8979E+00
 -18.393  0.1458E+00  0.8993E+00
 -18.383  0.1167E+00  0.9005E+00
 -18.373  0.9093E-01  0.9014E+00
 -18.363  0.7013E-01  0.9021E+00
 -18.353  0.5545E-01  0.9027E+00
 -18.343  0.4760E-01  0.9031E+00
 -18.333  0.4699E-01  0.9036E+00
 -18.323  0.5382E-01  0.9041E+00
 -18.313  0.6800E-01  0.9048E+00
 -18.303  0.8911E-01  0.9057E+00
 -18.293  0.1161E+00  0.9069E+00
 -18.283  0.1474E+00  0.9084E+00
 -18.273  0.1804E+00  0.9102E+00
 -18.263  0.2120E+00  0.9123E+00
 -18.253  0.2390E+00  0.9147E+00
 -18.243  0.2581E+00  0.9172E+00
 -18.233  0.2671E+00  0.9199E+00
 -18.223  0.2647E+00  0.9226E+00
 -18.213  0.2512E+00  0.9251E+00
 -18.203  0.2284E+00  0.9274E+00
 -18.193  0.1990E+00  0.9293E+00
 -18.183  0.1662E+00  0.9310E+00
 -18.173  0.1334E+00  0.9323E+00
 -18.163  0.1033E+00  0.9334E+00
 -18.153  0.7805E-01  0.9342E+00
 -18.143  0.5890E-01  0.9347E+00
 -18.133  0.4652E-01  0.9352E+00
 -18.123  0.4110E-01  0.9356E+00
 -18.113  0.4258E-01  0.9361E+00
 -18.103  0.5072E-01  0.9366E+00
 -18.093  0.6515E-01  0.9372E+00
 -18.083  0.8526E-01  0.9381E+00
 -18.073  0.1101E+00  0.9392E+00
 -18.063  0.1382E+00  0.9405E+00
 -18.053  0.1676E+00  0.9422E+00
 -18.043  0.1959E+00  0.9442E+00
 -18.033  0.2206E+00  0.9464E+00
 -18.023  0.2392E+00  0.9488E+00
 -18.013  0.2497E+00  0.9513E+00
 -18.003  0.2510E+00  0.9538E+00
 -17.993  0.2429E+00  0.9562E+00
 -17.983  0.2264E+00  0.9585E+00
 -17.973  0.2033E+00  0.9605E+00
 -17.963  0.1760E+00  0.9623E+00
 -17.953  0.1472E+00  0.9637E+00
 -17.943  0.1193E+00  0.9649E+00
 -17.933  0.9469E-01  0.9659E+00
 -17.923  0.7491E-01  0.9666E+00
 -17.913  0.6107E-01  0.9672E+00
 -17.903  0.5371E-01  0.9678E+00
 -17.893  0.5288E-01  0.9683E+00
 -17.883  0.5824E-01  0.9689E+00
 -17.873  0.6910E-01  0.9696E+00
 -17.863  0.8444E-01  0.9704E+00
 -17.853  0.1030E+00  0.9715E+00
 -17.843  0.1233E+00  0.9727E+00
 -17.833  0.1439E+00  0.9741E+00
 -17.823  0.1632E+00  0.9758E+00
 -17.813  0.1800E+00  0.9776E+00
 -17.803  0.1935E+00  0.9795E+00
 -17.793  0.2030E+00  0.9815E+00
 -17.783  0.2081E+00  0.9836E+00
 -17.773  0.2087E+00  0.9857E+00
 -17.763  0.2049E+00  0.9877E+00
 -17.753  0.1967E+00  0.9897E+00
 -17.743  0.1846E+00  0.9916E+00
 -17.733  0.1693E+00  0.9933E+00
 -17.723  0.1517E+00  0.9948E+00
 -17.713  0.1332E+00  0.9961E+00
 -17.703  0.1154E+00  0.9973E+00
 -17.693  0.9993E-01  0.9983E+00
 -17.683  0.8838E-01  0.9991E+00
 -17.673  0.8182E-01  0.1000E+01
 -17.663  0.8074E-01  0.1001E+01
 -17.653  0.8497E-01  0.1002E+01
 -17.643  0.9362E-01  0.1003E+01
 -17.633  0.1053E+00  0.1004E+01
 -17.623  0.1181E+00  0.1005E+01
 -17.613  0.1303E+00  0.1006E+01
 -17.603  0.1404E+00  0.1007E+01
 -17.593  0.1474E+00  0.1009E+01
 -17.583  0.1511E+00  0.1010E+01
 -17.573  0.1521E+00  0.1012E+01
 -17.563  0.1513E+00  0.1014E+01
 -17.553  0.1500E+00  0.1015E+01
 -17.543  0.1494E+00  0.1017E+01
 -17.533  0.1498E+00  0.1018E+01
 -17.523  0.1513E+00  0.1020E+01
 -17.513  0.1532E+00  0.1021E+01
 -17.503  0.1544E+00  0.1023E+01
 -17.493  0.1540E+00  0.1024E+01
 -17.483  0.1514E+00  0.1026E+01
 -17.473  0.1467E+00  0.1027E+01
 -17.463  0.1405E+00  0.1029E+01
 -17.453  0.1341E+00  0.1030E+01
 -17.443  0.1290E+00  0.1031E+01
 -17.433  0.1261E+00  0.1032E+01
 -17.423  0.1262E+00  0.1034E+01
 -17.413  0.1290E+00  0.1035E+01
 -17.403  0.1336E+00  0.1036E+01
 -17.393  0.1384E+00  0.1038E+01
 -17.383  0.1418E+00  0.1039E+01
 -17.373  0.1424E+00  0.1041E+01
 -17.363  0.1394E+00  0.1042E+01
 -17.353  0.1327E+00  0.1043E+01
 -17.343  0.1232E+00  0.1044E+01
 -17.333  0.1124E+00  0.1046E+01
 -17.323  0.1021E+00  0.1047E+01
 -17.313  0.9431E-01  0.1048E+01
 -17.303  0.9039E-01  0.1048E+01
 -17.293  0.9123E-01  0.1049E+01
 -17.283  0.9690E-01  0.1050E+01
 -17.273  0.1067E+00  0.1051E+01
 -17.263  0.1194E+00  0.1053E+01
 -17.253  0.1335E+00  0.1054E+01
 -17.243  0.1472E+00  0.1055E+01
 -17.233  0.1594E+00  0.1057E+01
 -17.223  0.1692E+00  0.1059E+01
 -17.213  0.1764E+00  0.1060E+01
 -17.203  0.1810E+00  0.1062E+01
 -17.193  0.1833E+00  0.1064E+01
 -17.183  0.1837E+00  0.1066E+01
 -17.173  0.1821E+00  0.1068E+01
 -17.163  0.1783E+00  0.1070E+01
 -17.153  0.1718E+00  0.1071E+01
 -17.143  0.1624E+00  0.1073E+01
 -17.133  0.1499E+00  0.1074E+01
 -17.123  0.1346E+00  0.1076E+01
 -17.113  0.1173E+00  0.1077E+01
 -17.103  0.9929E-01  0.1078E+01
 -17.093  0.8189E-01  0.1079E+01
 -17.083  0.6661E-01  0.1079E+01
 -17.073  0.5476E-01  0.1080E+01
 -17.063  0.4739E-01  0.1080E+01
 -17.053  0.4527E-01  0.1081E+01
 -17.043  0.4884E-01  0.1081E+01
 -17.033  0.5820E-01  0.1082E+01
 -17.023  0.7311E-01  0.1083E+01
 -17.013  0.9294E-01  0.1084E+01
 -17.003  0.1166E+00  0.1085E+01
 -16.993  0.1426E+00  0.1086E+01
 -16.983  0.1691E+00  0.1088E+01
 -16.973  0.1939E+00  0.1090E+01
 -16.963  0.2150E+00  0.1092E+01
 -16.953  0.2304E+00  0.1094E+01
 -16.943  0.2387E+00  0.1097E+01
 -16.933  0.2391E+00  0.1099E+01
 -16.923  0.2315E+00  0.1101E+01
 -16.913  0.2167E+00  0.1104E+01
 -16.903  0.1960E+00  0.1105E+01
 -16.893  0.1712E+00  0.1107E+01
 -16.883  0.1444E+00  0.1109E+01
 -16.873  0.1175E+00  0.1110E+01
 -16.863  0.9233E-01  0.1111E+01
 -16.853  0.7015E-01  0.1111E+01
 -16.843  0.5186E-01  0.1112E+01
 -16.833  0.3791E-01  0.1112E+01
 -16.823  0.2852E-01  0.1113E+01
 -16.813  0.2376E-01  0.1113E+01
 -16.803  0.2375E-01  0.1113E+01
 -16.793  0.2871E-01  0.1113E+01
 -16.783  0.3897E-01  0.1114E+01
 -16.773  0.5484E-01  0.1114E+01
 -16.763  0.7640E-01  0.1115E+01
 -16.753  0.1033E+00  0.1116E+01
 -16.743  0.1343E+00  0.1117E+01
 -16.733  0.1677E+00  0.1119E+01
 -16.723  0.2005E+00  0.1121E+01
 -16.713  0.2298E+00  0.1123E+01
 -16.703  0.2522E+00  0.1126E+01
 -16.693  0.2651E+00  0.1129E+01
 -16.683  0.2668E+00  0.1131E+01
 -16.673  0.2572E+00  0.1134E+01
 -16.663  0.2375E+00  0.1136E+01
 -16.653  0.2101E+00  0.1138E+01
 -16.643  0.1780E+00  0.1140E+01
 -16.633  0.1445E+00  0.1142E+01
 -16.623  0.1125E+00  0.1143E+01
 -16.613  0.8429E-01  0.1144E+01
 -16.603  0.6117E-01  0.1144E+01
 -16.593  0.4376E-01  0.1145E+01
 -16.583  0.3212E-01  0.1145E+01
 -16.573  0.2599E-01  0.1145E+01
 -16.563  0.2503E-01  0.1145E+01
 -16.553  0.2895E-01  0.1146E+01
 -16.543  0.3751E-01  0.1146E+01
 -16.533  0.5053E-01  0.1147E+01
 -16.523  0.6770E-01  0.1147E+01
 -16.513  0.8847E-01  0.1148E+01
 -16.503  0.1120E+00  0.1149E+01
 -16.493  0.1370E+00  0.1151E+01
 -16.483  0.1621E+00  0.1152E+01
 -16.473  0.1854E+00  0.1154E+01
 -16.463  0.2053E+00  0.1156E+01
 -16.453  0.2202E+00  0.1158E+01
 -16.443  0.2290E+00  0.1161E+01
 -16.433  0.2310E+00  0.1163E+01
 -16.423  0.2261E+00  0.1165E+01
 -16.413  0.2147E+00  0.1167E+01
 -16.403  0.1979E+00  0.1169E+01
 -16.393  0.1771E+00  0.1171E+01
 -16.383  0.1542E+00  0.1173E+01
 -16.373  0.1313E+00  0.1174E+01
 -16.363  0.1103E+00  0.1175E+01
 -16.353  0.9302E-01  0.1176E+01
 -16.343  0.8081E-01  0.1177E+01
 -16.333  0.7447E-01  0.1178E+01
 -16.323  0.7415E-01  0.1178E+01
 -16.313  0.7933E-01  0.1179E+01
 -16.303  0.8885E-01  0.1180E+01
 -16.293  0.1011E+00  0.1181E+01
 -16.283  0.1140E+00  0.1182E+01
 -16.273  0.1256E+00  0.1183E+01
 -16.263  0.1344E+00  0.1185E+01
 -16.253  0.1392E+00  0.1186E+01
 -16.243  0.1399E+00  0.1188E+01
 -16.233  0.1372E+00  0.1189E+01
 -16.223  0.1325E+00  0.1190E+01
 -16.213  0.1279E+00  0.1192E+01
 -16.203  0.1255E+00  0.1193E+01
 -16.193  0.1273E+00  0.1194E+01
 -16.183  0.1345E+00  0.1195E+01
 -16.173  0.1476E+00  0.1197E+01
 -16.163  0.1663E+00  0.1199E+01
 -16.153  0.1899E+00  0.1200E+01
 -16.143  0.2171E+00  0.1203E+01
 -16.133  0.2473E+00  0.1205E+01
 -16.123  0.2801E+00  0.1208E+01
 -16.113  0.3164E+00  0.1211E+01
 -16.103  0.3580E+00  0.1215E+01
 -16.093  0.4075E+00  0.1219E+01
 -16.083  0.4677E+00  0.1223E+01
 -16.073  0.5407E+00  0.1229E+01
 -16.063  0.6271E+00  0.1235E+01
 -16.053  0.7255E+00  0.1242E+01
 -16.043  0.8318E+00  0.1251E+01
 -16.033  0.9397E+00  0.1260E+01
 -16.023  0.1041E+01  0.1270E+01
 -16.013  0.1129E+01  0.1282E+01
 -16.003  0.1195E+01  0.1294E+01
 -15.993  0.1236E+01  0.1306E+01
 -15.983  0.1250E+01  0.1319E+01
 -15.973  0.1238E+01  0.1331E+01
 -15.963  0.1206E+01  0.1343E+01
 -15.953  0.1159E+01  0.1355E+01
 -15.943  0.1104E+01  0.1366E+01
 -15.933  0.1048E+01  0.1376E+01
 -15.923  0.9940E+00  0.1386E+01
 -15.913  0.9466E+00  0.1395E+01
 -15.903  0.9071E+00  0.1405E+01
 -15.893  0.8754E+00  0.1413E+01
 -15.883  0.8502E+00  0.1422E+01
 -15.873  0.8293E+00  0.1430E+01
 -15.863  0.8103E+00  0.1438E+01
 -15.853  0.7910E+00  0.1446E+01
 -15.843  0.7697E+00  0.1454E+01
 -15.833  0.7453E+00  0.1461E+01
 -15.823  0.7179E+00  0.1468E+01
 -15.813  0.6880E+00  0.1475E+01
 -15.803  0.6570E+00  0.1482E+01
 -15.793  0.6261E+00  0.1488E+01
 -15.783  0.5967E+00  0.1494E+01
 -15.773  0.5698E+00  0.1500E+01
 -15.763  0.5461E+00  0.1505E+01
 -15.753  0.5256E+00  0.1511E+01
 -15.743  0.5084E+00  0.1516E+01
 -15.733  0.4939E+00  0.1521E+01
 -15.723  0.4818E+00  0.1525E+01
 -15.713  0.4717E+00  0.1530E+01
 -15.703  0.4633E+00  0.1535E+01
 -15.693  0.4564E+00  0.1539E+01
 -15.683  0.4511E+00  0.1544E+01
 -15.673  0.4475E+00  0.1548E+01
 -15.663  0.4459E+00  0.1553E+01
 -15.653  0.4468E+00  0.1557E+01
 -15.643  0.4503E+00  0.1562E+01
 -15.633  0.4567E+00  0.1566E+01
 -15.623  0.4656E+00  0.1571E+01
 -15.613  0.4764E+00  0.1576E+01
 -15.603  0.4880E+00  0.1581E+01
 -15.593  0.4991E+00  0.1586E+01
 -15.583  0.5078E+00  0.1591E+01
 -15.573  0.5128E+00  0.1596E+01
 -15.563  0.5129E+00  0.1601E+01
 -15.553  0.5074E+00  0.1606E+01
 -15.543  0.4966E+00  0.1611E+01
 -15.533  0.4812E+00  0.1616E+01
 -15.523  0.4626E+00  0.1620E+01
 -15.513  0.4424E+00  0.1625E+01
 -15.503  0.4221E+00  0.1629E+01
 -15.493  0.4031E+00  0.1633E+01
 -15.483  0.3862E+00  0.1637E+01
 -15.473  0.3720E+00  0.1641E+01
 -15.463  0.3604E+00  0.1644E+01
 -15.453  0.3512E+00  0.1648E+01
 -15.443  0.3441E+00  0.1651E+01
 -15.433  0.3388E+00  0.1655E+01
 -15.423  0.3350E+00  0.1658E+01
 -15.413  0.3325E+00  0.1661E+01
 -15.403  0.3313E+00  0.1665E+01
 -15.393  0.3317E+00  0.1668E+01
 -15.383  0.3339E+00  0.1671E+01
 -15.373  0.3383E+00  0.1675E+01
 -15.363  0.3451E+00  0.1678E+01
 -15.353  0.3546E+00  0.1682E+01
 -15.343  0.3665E+00  0.1685E+01
 -15.333  0.3802E+00  0.1689E+01
 -15.323  0.3947E+00  0.1693E+01
 -15.313  0.4087E+00  0.1697E+01
 -15.303  0.4204E+00  0.1701E+01
 -15.293  0.4283E+00  0.1706E+01
 -15.283  0.4313E+00  0.1710E+01
 -15.273  0.4286E+00  0.1714E+01
 -15.263  0.4205E+00  0.1718E+01
 -15.253  0.4077E+00  0.1722E+01
 -15.243  0.3915E+00  0.1726E+01
 -15.233  0.3738E+00  0.1730E+01
 -15.223  0.3562E+00  0.1734E+01
 -15.213  0.3407E+00  0.1737E+01
 -15.203  0.3287E+00  0.1740E+01
 -15.193  0.3220E+00  0.1744E+01
 -15.183  0.3221E+00  0.1747E+01
 -15.173  0.3311E+00  0.1750E+01
 -15.163  0.3514E+00  0.1754E+01
 -15.153  0.3856E+00  0.1757E+01
 -15.143  0.4367E+00  0.1762E+01
 -15.133  0.5072E+00  0.1767E+01
 -15.123  0.5985E+00  0.1773E+01
 -15.113  0.7104E+00  0.1780E+01
 -15.103  0.8405E+00  0.1788E+01
 -15.093  0.9839E+00  0.1798E+01
 -15.083  0.1134E+01  0.1810E+01
 -15.073  0.1281E+01  0.1822E+01
 -15.063  0.1417E+01  0.1837E+01
 -15.053  0.1532E+01  0.1852E+01
 -15.043  0.1621E+01  0.1868E+01
 -15.033  0.1679E+01  0.1885E+01
 -15.023  0.1704E+01  0.1902E+01
 -15.013  0.1698E+01  0.1919E+01
 -15.003  0.1664E+01  0.1936E+01
 -14.993  0.1608E+01  0.1952E+01
 -14.983  0.1535E+01  0.1967E+01
 -14.973  0.1453E+01  0.1982E+01
 -14.963  0.1366E+01  0.1995E+01
 -14.953  0.1279E+01  0.2008E+01
 -14.943  0.1198E+01  0.2020E+01
 -14.933  0.1126E+01  0.2031E+01
 -14.923  0.1063E+01  0.2042E+01
 -14.913  0.1011E+01  0.2052E+01
 -14.903  0.9703E+00  0.2062E+01
 -14.893  0.9402E+00  0.2071E+01
 -14.883  0.9200E+00  0.2080E+01
 -14.873  0.9087E+00  0.2089E+01
 -14.863  0.9049E+00  0.2098E+01
 -14.853  0.9073E+00  0.2107E+01
 -14.843  0.9142E+00  0.2117E+01
 -14.833  0.9239E+00  0.2126E+01
 -14.823  0.9346E+00  0.2135E+01
 -14.813  0.9444E+00  0.2145E+01
 -14.803  0.9517E+00  0.2154E+01
 -14.793  0.9550E+00  0.2164E+01
 -14.783  0.9534E+00  0.2173E+01
 -14.773  0.9462E+00  0.2183E+01
 -14.763  0.9332E+00  0.2192E+01
 -14.753  0.9148E+00  0.2201E+01
 -14.743  0.8917E+00  0.2210E+01
 -14.733  0.8650E+00  0.2219E+01
 -14.723  0.8359E+00  0.2227E+01
 -14.713  0.8061E+00  0.2235E+01
 -14.703  0.7771E+00  0.2243E+01
 -14.693  0.7507E+00  0.2250E+01
 -14.683  0.7283E+00  0.2258E+01
 -14.673  0.7110E+00  0.2265E+01
 -14.663  0.6995E+00  0.2272E+01
 -14.653  0.6943E+00  0.2279E+01
 -14.643  0.6954E+00  0.2286E+01
 -14.633  0.7024E+00  0.2293E+01
 -14.623  0.7146E+00  0.2300E+01
 -14.613  0.7310E+00  0.2307E+01
 -14.603  0.7503E+00  0.2315E+01
 -14.593  0.7708E+00  0.2322E+01
 -14.583  0.7907E+00  0.2330E+01
 -14.573  0.8082E+00  0.2338E+01
 -14.563  0.8215E+00  0.2347E+01
 -14.553  0.8294E+00  0.2355E+01
 -14.543  0.8310E+00  0.2363E+01
 -14.533  0.8261E+00  0.2371E+01
 -14.523  0.8149E+00  0.2380E+01
 -14.513  0.7982E+00  0.2388E+01
 -14.503  0.7769E+00  0.2395E+01
 -14.493  0.7524E+00  0.2403E+01
 -14.483  0.7263E+00  0.2410E+01
 -14.473  0.7004E+00  0.2417E+01
 -14.463  0.6764E+00  0.2424E+01
 -14.453  0.6559E+00  0.2430E+01
 -14.443  0.6403E+00  0.2437E+01
 -14.433  0.6305E+00  0.2443E+01
 -14.423  0.6272E+00  0.2449E+01
 -14.413  0.6309E+00  0.2456E+01
 -14.403  0.6415E+00  0.2462E+01
 -14.393  0.6591E+00  0.2469E+01
 -14.383  0.6833E+00  0.2476E+01
 -14.373  0.7129E+00  0.2483E+01
 -14.363  0.7463E+00  0.2490E+01
 -14.353  0.7809E+00  0.2498E+01
 -14.343  0.8137E+00  0.2506E+01
 -14.333  0.8414E+00  0.2515E+01
 -14.323  0.8614E+00  0.2523E+01
 -14.313  0.8720E+00  0.2532E+01
 -14.303  0.8731E+00  0.2541E+01
 -14.293  0.8660E+00  0.2549E+01
 -14.283  0.8535E+00  0.2558E+01
 -14.273  0.8394E+00  0.2566E+01
 -14.263  0.8276E+00  0.2574E+01
 -14.253  0.8219E+00  0.2583E+01
 -14.243  0.8254E+00  0.2591E+01
 -14.233  0.8399E+00  0.2599E+01
 -14.223  0.8663E+00  0.2608E+01
 -14.213  0.9037E+00  0.2617E+01
 -14.203  0.9500E+00  0.2627E+01
 -14.193  0.1001E+01  0.2637E+01
 -14.183  0.1052E+01  0.2647E+01
 -14.173  0.1096E+01  0.2658E+01
 -14.163  0.1128E+01  0.2669E+01
 -14.153  0.1140E+01  0.2681E+01
 -14.143  0.1129E+01  0.2692E+01
 -14.133  0.1093E+01  0.2703E+01
 -14.123  0.1032E+01  0.2713E+01
 -14.113  0.9510E+00  0.2723E+01
 -14.103  0.8555E+00  0.2731E+01
 -14.093  0.7534E+00  0.2739E+01
 -14.083  0.6523E+00  0.2745E+01
 -14.073  0.5591E+00  0.2751E+01
 -14.063  0.4785E+00  0.2756E+01
 -14.053  0.4131E+00  0.2760E+01
 -14.043  0.3627E+00  0.2764E+01
 -14.033  0.3256E+00  0.2767E+01
 -14.023  0.2986E+00  0.2770E+01
 -14.013  0.2782E+00  0.2773E+01
 -14.003  0.2608E+00  0.2775E+01
 -13.993  0.2438E+00  0.2778E+01
 -13.983  0.2252E+00  0.2780E+01
 -13.973  0.2042E+00  0.2782E+01
 -13.963  0.1809E+00  0.2784E+01
 -13.953  0.1561E+00  0.2785E+01
 -13.943  0.1309E+00  0.2787E+01
 -13.933  0.1069E+00  0.2788E+01
 -13.923  0.8544E-01  0.2789E+01
 -13.913  0.6787E-01  0.2789E+01
 -13.903  0.5514E-01  0.2790E+01
 -13.893  0.4793E-01  0.2790E+01
 -13.883  0.4661E-01  0.2791E+01
 -13.873  0.5127E-01  0.2791E+01
 -13.863  0.6171E-01  0.2792E+01
 -13.853  0.7741E-01  0.2793E+01
 -13.843  0.9752E-01  0.2794E+01
 -13.833  0.1208E+00  0.2795E+01
 -13.823  0.1457E+00  0.2796E+01
 -13.813  0.1705E+00  0.2798E+01
 -13.803  0.1932E+00  0.2800E+01
 -13.793  0.2121E+00  0.2802E+01
 -13.783  0.2256E+00  0.2804E+01
 -13.773  0.2325E+00  0.2807E+01
 -13.763  0.2324E+00  0.2809E+01
 -13.753  0.2254E+00  0.2811E+01
 -13.743  0.2123E+00  0.2813E+01
 -13.733  0.1945E+00  0.2815E+01
 -13.723  0.1738E+00  0.2817E+01
 -13.713  0.1523E+00  0.2818E+01
 -13.703  0.1323E+00  0.2820E+01
 -13.693  0.1157E+00  0.2821E+01
 -13.683  0.1040E+00  0.2822E+01
 -13.673  0.9811E-01  0.2823E+01
 -13.663  0.9793E-01  0.2824E+01
 -13.653  0.1027E+00  0.2825E+01
 -13.643  0.1108E+00  0.2826E+01
 -13.633  0.1202E+00  0.2827E+01
 -13.623  0.1289E+00  0.2829E+01
 -13.613  0.1348E+00  0.2830E+01
 -13.603  0.1365E+00  0.2831E+01
 -13.593  0.1336E+00  0.2833E+01
 -13.583  0.1262E+00  0.2834E+01
 -13.573  0.1156E+00  0.2835E+01
 -13.563  0.1035E+00  0.2836E+01
 -13.553  0.9199E-01  0.2837E+01
 -13.543  0.8321E-01  0.2838E+01
 -13.533  0.7891E-01  0.2839E+01
 -13.523  0.8035E-01  0.2839E+01
 -13.513  0.8810E-01  0.2840E+01
 -13.503  0.1020E+00  0.2841E+01
 -13.493  0.1211E+00  0.2843E+01
 -13.483  0.1440E+00  0.2844E+01
 -13.473  0.1686E+00  0.2846E+01
 -13.463  0.1925E+00  0.2848E+01
 -13.453  0.2135E+00  0.2850E+01
 -13.443  0.2293E+00  0.2852E+01
 -13.433  0.2384E+00  0.2854E+01
 -13.423  0.2397E+00  0.2857E+01
 -13.413  0.2331E+00  0.2859E+01
 -13.403  0.2192E+00  0.2861E+01
 -13.393  0.1991E+00  0.2863E+01
 -13.383  0.1747E+00  0.2865E+01
 -13.373  0.1481E+00  0.2867E+01
 -13.363  0.1212E+00  0.2868E+01
 -13.353  0.9593E-01  0.2869E+01
 -13.343  0.7365E-01  0.2869E+01
 -13.333  0.5537E-01  0.2870E+01
 -13.323  0.4168E-01  0.2870E+01
 -13.313  0.3287E-01  0.2871E+01
 -13.303  0.2901E-01  0.2871E+01
 -13.293  0.3009E-01  0.2871E+01
 -13.283  0.3607E-01  0.2872E+01
 -13.273  0.4686E-01  0.2872E+01
 -13.263  0.6224E-01  0.2873E+01
 -13.253  0.8176E-01  0.2874E+01
 -13.243  0.1046E+00  0.2875E+01
 -13.233  0.1297E+00  0.2876E+01
 -13.223  0.1555E+00  0.2878E+01
 -13.213  0.1802E+00  0.2879E+01
 -13.203  0.2020E+00  0.2881E+01
 -13.193  0.2192E+00  0.2884E+01
 -13.183  0.2302E+00  0.2886E+01
 -13.173  0.2343E+00  0.2888E+01
 -13.163  0.2310E+00  0.2890E+01
 -13.153  0.2207E+00  0.2893E+01
 -13.143  0.2043E+00  0.2895E+01
 -13.133  0.1834E+00  0.2897E+01
 -13.123  0.1597E+00  0.2898E+01
 -13.113  0.1354E+00  0.2900E+01
 -13.103  0.1125E+00  0.2901E+01
 -13.093  0.9288E-01  0.2902E+01
 -13.083  0.7796E-01  0.2902E+01
 -13.073  0.6872E-01  0.2903E+01
 -13.063  0.6556E-01  0.2904E+01
 -13.053  0.6828E-01  0.2904E+01
 -13.043  0.7606E-01  0.2905E+01
 -13.033  0.8754E-01  0.2906E+01
 -13.023  0.1009E+00  0.2907E+01
 -13.013  0.1143E+00  0.2908E+01
 -13.003  0.1255E+00  0.2909E+01
 -12.993  0.1331E+00  0.2911E+01
 -12.983  0.1359E+00  0.2912E+01
 -12.973  0.1338E+00  0.2913E+01
 -12.963  0.1275E+00  0.2915E+01
 -12.953  0.1182E+00  0.2916E+01
 -12.943  0.1080E+00  0.2917E+01
 -12.933  0.9893E-01  0.2918E+01
 -12.923  0.9278E-01  0.2919E+01
 -12.913  0.9092E-01  0.2920E+01
 -12.903  0.9397E-01  0.2921E+01
 -12.893  0.1017E+00  0.2922E+01
 -12.883  0.1133E+00  0.2923E+01
 -12.873  0.1273E+00  0.2924E+01
 -12.863  0.1422E+00  0.2926E+01
 -12.853  0.1563E+00  0.2927E+01
 -12.843  0.1686E+00  0.2929E+01
 -12.833  0.1784E+00  0.2931E+01
 -12.823  0.1853E+00  0.2932E+01
 -12.813  0.1894E+00  0.2934E+01
 -12.803  0.1908E+00  0.2936E+01
 -12.793  0.1896E+00  0.2938E+01
 -12.783  0.1857E+00  0.2940E+01
 -12.773  0.1788E+00  0.2942E+01
 -12.763  0.1688E+00  0.2944E+01
 -12.753  0.1555E+00  0.2945E+01
 -12.743  0.1394E+00  0.2946E+01
 -12.733  0.1211E+00  0.2948E+01
 -12.723  0.1018E+00  0.2949E+01
 -12.713  0.8260E-01  0.2950E+01
 -12.703  0.6471E-01  0.2950E+01
 -12.693  0.4915E-01  0.2951E+01
 -12.683  0.3665E-01  0.2951E+01
 -12.673  0.2770E-01  0.2951E+01
 -12.663  0.2265E-01  0.2952E+01
 -12.653  0.2176E-01  0.2952E+01
 -12.643  0.2539E-01  0.2952E+01
 -12.633  0.3395E-01  0.2952E+01
 -12.623  0.4785E-01  0.2953E+01
 -12.613  0.6738E-01  0.2953E+01
 -12.603  0.9240E-01  0.2954E+01
 -12.593  0.1222E+00  0.2956E+01
 -12.583  0.1551E+00  0.2957E+01
 -12.573  0.1890E+00  0.2959E+01
 -12.563  0.2209E+00  0.2961E+01
 -12.553  0.2479E+00  0.2964E+01
 -12.543  0.2675E+00  0.2966E+01
 -12.533  0.2786E+00  0.2969E+01
 -12.523  0.2812E+00  0.2972E+01
 -12.513  0.2772E+00  0.2975E+01
 -12.503  0.2702E+00  0.2978E+01
 -12.493  0.2643E+00  0.2980E+01
 -12.483  0.2642E+00  0.2983E+01
 -12.473  0.2735E+00  0.2986E+01
 -12.463  0.2945E+00  0.2988E+01
 -12.453  0.3276E+00  0.2992E+01
 -12.443  0.3712E+00  0.2995E+01
 -12.433  0.4217E+00  0.3000E+01
 -12.423  0.4746E+00  0.3004E+01
 -12.413  0.5252E+00  0.3010E+01
 -12.403  0.5692E+00  0.3015E+01
 -12.393  0.6038E+00  0.3021E+01
 -12.383  0.6279E+00  0.3028E+01
 -12.373  0.6419E+00  0.3034E+01
 -12.363  0.6476E+00  0.3041E+01
 -12.353  0.6475E+00  0.3047E+01
 -12.343  0.6437E+00  0.3053E+01
 -12.333  0.6380E+00  0.3060E+01
 -12.323  0.6310E+00  0.3066E+01
 -12.313  0.6225E+00  0.3072E+01
 -12.303  0.6121E+00  0.3079E+01
 -12.293  0.5992E+00  0.3085E+01
 -12.283  0.5837E+00  0.3090E+01
 -12.273  0.5660E+00  0.3096E+01
 -12.263  0.5474E+00  0.3101E+01
 -12.253  0.5293E+00  0.3107E+01
 -12.243  0.5129E+00  0.3112E+01
 -12.233  0.4989E+00  0.3117E+01
 -12.223  0.4872E+00  0.3122E+01
 -12.213  0.4767E+00  0.3127E+01
 -12.203  0.4659E+00  0.3131E+01
 -12.193  0.4532E+00  0.3136E+01
 -12.183  0.4373E+00  0.3140E+01
 -12.173  0.4179E+00  0.3144E+01
 -12.163  0.3959E+00  0.3148E+01
 -12.153  0.3733E+00  0.3152E+01
 -12.143  0.3525E+00  0.3155E+01
 -12.133  0.3365E+00  0.3159E+01
 -12.123  0.3273E+00  0.3162E+01
 -12.113  0.3260E+00  0.3165E+01
 -12.103  0.3321E+00  0.3169E+01
 -12.093  0.3440E+00  0.3172E+01
 -12.083  0.3590E+00  0.3176E+01
 -12.073  0.3741E+00  0.3179E+01
 -12.063  0.3864E+00  0.3183E+01
 -12.053  0.3937E+00  0.3187E+01
 -12.043  0.3951E+00  0.3191E+01
 -12.033  0.3904E+00  0.3195E+01
 -12.023  0.3804E+00  0.3199E+01
 -12.013  0.3666E+00  0.3203E+01
 -12.003  0.3507E+00  0.3206E+01
 -11.993  0.3343E+00  0.3209E+01
 -11.983  0.3189E+00  0.3213E+01
 -11.973  0.3060E+00  0.3216E+01
 -11.963  0.2966E+00  0.3219E+01
 -11.953  0.2916E+00  0.3222E+01
 -11.943  0.2917E+00  0.3225E+01
 -11.933  0.2975E+00  0.3227E+01
 -11.923  0.3090E+00  0.3231E+01
 -11.913  0.3259E+00  0.3234E+01
 -11.903  0.3471E+00  0.3237E+01
 -11.893  0.3711E+00  0.3241E+01
 -11.883  0.3955E+00  0.3245E+01
 -11.873  0.4178E+00  0.3249E+01
 -11.863  0.4352E+00  0.3254E+01
 -11.853  0.4451E+00  0.3258E+01
 -11.843  0.4458E+00  0.3262E+01
 -11.833  0.4363E+00  0.3267E+01
 -11.823  0.4173E+00  0.3271E+01
 -11.813  0.3902E+00  0.3275E+01
 -11.803  0.3578E+00  0.3278E+01
 -11.793  0.3234E+00  0.3282E+01
 -11.783  0.2905E+00  0.3285E+01
 -11.773  0.2623E+00  0.3287E+01
 -11.763  0.2411E+00  0.3290E+01
 -11.753  0.2278E+00  0.3292E+01
 -11.743  0.2224E+00  0.3294E+01
 -11.733  0.2237E+00  0.3296E+01
 -11.723  0.2299E+00  0.3299E+01
 -11.713  0.2387E+00  0.3301E+01
 -11.703  0.2481E+00  0.3304E+01
 -11.693  0.2566E+00  0.3306E+01
 -11.683  0.2635E+00  0.3309E+01
 -11.673  0.2693E+00  0.3311E+01
 -11.663  0.2749E+00  0.3314E+01
 -11.653  0.2821E+00  0.3317E+01
 -11.643  0.2925E+00  0.3320E+01
 -11.633  0.3073E+00  0.3323E+01
 -11.623  0.3270E+00  0.3326E+01
 -11.613  0.3503E+00  0.3330E+01
 -11.603  0.3752E+00  0.3333E+01
 -11.593  0.3984E+00  0.3337E+01
 -11.583  0.4163E+00  0.3342E+01
 -11.573  0.4261E+00  0.3346E+01
 -11.563  0.4258E+00  0.3350E+01
 -11.553  0.4154E+00  0.3354E+01
 -11.543  0.3967E+00  0.3358E+01
 -11.533  0.3727E+00  0.3362E+01
 -11.523  0.3474E+00  0.3365E+01
 -11.513  0.3242E+00  0.3369E+01
 -11.503  0.3060E+00  0.3372E+01
 -11.493  0.2938E+00  0.3375E+01
 -11.483  0.2872E+00  0.3378E+01
 -11.473  0.2844E+00  0.3380E+01
 -11.463  0.2826E+00  0.3383E+01
 -11.453  0.2790E+00  0.3386E+01
 -11.443  0.2714E+00  0.3389E+01
 -11.433  0.2586E+00  0.3391E+01
 -11.423  0.2407E+00  0.3394E+01
 -11.413  0.2191E+00  0.3396E+01
 -11.403  0.1965E+00  0.3398E+01
 -11.393  0.1760E+00  0.3400E+01
 -11.383  0.1613E+00  0.3401E+01
 -11.373  0.1553E+00  0.3403E+01
 -11.363  0.1606E+00  0.3404E+01
 -11.353  0.1786E+00  0.3406E+01
 -11.343  0.2092E+00  0.3408E+01
 -11.333  0.2510E+00  0.3411E+01
 -11.323  0.3009E+00  0.3414E+01
 -11.313  0.3545E+00  0.3417E+01
 -11.303  0.4066E+00  0.3421E+01
 -11.293  0.4518E+00  0.3426E+01
 -11.283  0.4850E+00  0.3431E+01
 -11.273  0.5024E+00  0.3436E+01
 -11.263  0.5023E+00  0.3441E+01
 -11.253  0.4849E+00  0.3446E+01
 -11.243  0.4527E+00  0.3450E+01
 -11.233  0.4096E+00  0.3454E+01
 -11.223  0.3609E+00  0.3458E+01
 -11.213  0.3119E+00  0.3461E+01
 -11.203  0.2671E+00  0.3464E+01
 -11.193  0.2299E+00  0.3466E+01
 -11.183  0.2020E+00  0.3468E+01
 -11.173  0.1835E+00  0.3470E+01
 -11.163  0.1732E+00  0.3472E+01
 -11.153  0.1692E+00  0.3473E+01
 -11.143  0.1695E+00  0.3475E+01
 -11.133  0.1726E+00  0.3477E+01
 -11.123  0.1777E+00  0.3479E+01
 -11.113  0.1849E+00  0.3480E+01
 -11.103  0.1951E+00  0.3482E+01
 -11.093  0.2093E+00  0.3484E+01
 -11.083  0.2284E+00  0.3487E+01
 -11.073  0.2524E+00  0.3489E+01
 -11.063  0.2802E+00  0.3492E+01
 -11.053  0.3098E+00  0.3495E+01
 -11.043  0.3388E+00  0.3499E+01
 -11.033  0.3641E+00  0.3502E+01
 -11.023  0.3833E+00  0.3506E+01
 -11.013  0.3946E+00  0.3510E+01
 -11.003  0.3976E+00  0.3514E+01
 -10.993  0.3924E+00  0.3518E+01
 -10.983  0.3803E+00  0.3522E+01
 -10.973  0.3628E+00  0.3525E+01
 -10.963  0.3417E+00  0.3529E+01
 -10.953  0.3185E+00  0.3532E+01
 -10.943  0.2949E+00  0.3535E+01
 -10.933  0.2719E+00  0.3538E+01
 -10.923  0.2511E+00  0.3540E+01
 -10.913  0.2336E+00  0.3542E+01
 -10.903  0.2209E+00  0.3545E+01
 -10.893  0.2141E+00  0.3547E+01
 -10.883  0.2142E+00  0.3549E+01
 -10.873  0.2212E+00  0.3551E+01
 -10.863  0.2345E+00  0.3553E+01
 -10.853  0.2524E+00  0.3556E+01
 -10.843  0.2727E+00  0.3559E+01
 -10.833  0.2927E+00  0.3562E+01
 -10.823  0.3099E+00  0.3565E+01
 -10.813  0.3221E+00  0.3568E+01
 -10.803  0.3283E+00  0.3571E+01
 -10.793  0.3283E+00  0.3574E+01
 -10.783  0.3225E+00  0.3578E+01
 -10.773  0.3123E+00  0.3581E+01
 -10.763  0.2992E+00  0.3584E+01
 -10.753  0.2849E+00  0.3587E+01
 -10.743  0.2707E+00  0.3589E+01
 -10.733  0.2577E+00  0.3592E+01
 -10.723  0.2469E+00  0.3594E+01
 -10.713  0.2387E+00  0.3597E+01
 -10.703  0.2333E+00  0.3599E+01
 -10.693  0.2306E+00  0.3601E+01
 -10.683  0.2307E+00  0.3604E+01
 -10.673  0.2335E+00  0.3606E+01
 -10.663  0.2390E+00  0.3608E+01
 -10.653  0.2472E+00  0.3611E+01
 -10.643  0.2581E+00  0.3614E+01
 -10.633  0.2714E+00  0.3616E+01
 -10.623  0.2865E+00  0.3619E+01
 -10.613  0.3023E+00  0.3622E+01
 -10.603  0.3175E+00  0.3625E+01
 -10.593  0.3308E+00  0.3629E+01
 -10.583  0.3409E+00  0.3632E+01
 -10.573  0.3472E+00  0.3636E+01
 -10.563  0.3493E+00  0.3639E+01
 -10.553  0.3475E+00  0.3642E+01
 -10.543  0.3425E+00  0.3646E+01
 -10.533  0.3348E+00  0.3649E+01
 -10.523  0.3250E+00  0.3653E+01
 -10.513  0.3136E+00  0.3656E+01
 -10.503  0.3006E+00  0.3659E+01
 -10.493  0.2861E+00  0.3662E+01
 -10.483  0.2703E+00  0.3664E+01
 -10.473  0.2535E+00  0.3667E+01
 -10.463  0.2367E+00  0.3669E+01
 -10.453  0.2209E+00  0.3671E+01
 -10.443  0.2077E+00  0.3673E+01
 -10.433  0.1986E+00  0.3675E+01
 -10.423  0.1950E+00  0.3677E+01
 -10.413  0.1975E+00  0.3679E+01
 -10.403  0.2062E+00  0.3681E+01
 -10.393  0.2199E+00  0.3684E+01
 -10.383  0.2371E+00  0.3686E+01
 -10.373  0.2558E+00  0.3688E+01
 -10.363  0.2736E+00  0.3691E+01
 -10.353  0.2888E+00  0.3694E+01
 -10.343  0.3002E+00  0.3697E+01
 -10.333  0.3074E+00  0.3700E+01
 -10.323  0.3106E+00  0.3703E+01
 -10.313  0.3110E+00  0.3706E+01
 -10.303  0.3095E+00  0.3710E+01
 -10.293  0.3077E+00  0.3713E+01
 -10.283  0.3064E+00  0.3716E+01
 -10.273  0.3066E+00  0.3719E+01
 -10.263  0.3083E+00  0.3722E+01
 -10.253  0.3114E+00  0.3725E+01
 -10.243  0.3152E+00  0.3728E+01
 -10.233  0.3185E+00  0.3731E+01
 -10.223  0.3201E+00  0.3734E+01
 -10.213  0.3186E+00  0.3738E+01
 -10.203  0.3134E+00  0.3741E+01
 -10.193  0.3041E+00  0.3744E+01
 -10.183  0.2915E+00  0.3747E+01
 -10.173  0.2770E+00  0.3749E+01
 -10.163  0.2627E+00  0.3752E+01
 -10.153  0.2509E+00  0.3755E+01
 -10.143  0.2436E+00  0.3757E+01
 -10.133  0.2420E+00  0.3759E+01
 -10.123  0.2460E+00  0.3762E+01
 -10.113  0.2544E+00  0.3764E+01
 -10.103  0.2648E+00  0.3767E+01
 -10.093  0.2741E+00  0.3770E+01
 -10.083  0.2796E+00  0.3773E+01
 -10.073  0.2789E+00  0.3775E+01
 -10.063  0.2713E+00  0.3778E+01
 -10.053  0.2572E+00  0.3781E+01
 -10.043  0.2389E+00  0.3783E+01
 -10.033  0.2194E+00  0.3785E+01
 -10.023  0.2023E+00  0.3787E+01
 -10.013  0.1911E+00  0.3789E+01
 -10.003  0.1885E+00  0.3791E+01
  -9.993  0.1959E+00  0.3793E+01
  -9.983  0.2134E+00  0.3795E+01
  -9.973  0.2396E+00  0.3798E+01
  -9.963  0.2717E+00  0.3800E+01
  -9.953  0.3064E+00  0.3803E+01
  -9.943  0.3399E+00  0.3807E+01
  -9.933  0.3688E+00  0.3811E+01
  -9.923  0.3903E+00  0.3814E+01
  -9.913  0.4029E+00  0.3818E+01
  -9.903  0.4061E+00  0.3823E+01
  -9.893  0.4008E+00  0.3827E+01
  -9.883  0.3886E+00  0.3830E+01
  -9.873  0.3717E+00  0.3834E+01
  -9.863  0.3523E+00  0.3838E+01
  -9.853  0.3324E+00  0.3841E+01
  -9.843  0.3133E+00  0.3844E+01
  -9.833  0.2958E+00  0.3847E+01
  -9.823  0.2800E+00  0.3850E+01
  -9.813  0.2655E+00  0.3853E+01
  -9.803  0.2516E+00  0.3855E+01
  -9.793  0.2373E+00  0.3857E+01
  -9.783  0.2221E+00  0.3860E+01
  -9.773  0.2056E+00  0.3862E+01
  -9.763  0.1877E+00  0.3864E+01
  -9.753  0.1694E+00  0.3865E+01
  -9.743  0.1520E+00  0.3867E+01
  -9.733  0.1374E+00  0.3868E+01
  -9.723  0.1280E+00  0.3869E+01
  -9.713  0.1261E+00  0.3871E+01
  -9.703  0.1339E+00  0.3872E+01
  -9.693  0.1527E+00  0.3874E+01
  -9.683  0.1830E+00  0.3875E+01
  -9.673  0.2239E+00  0.3878E+01
  -9.663  0.2733E+00  0.3880E+01
  -9.653  0.3275E+00  0.3884E+01
  -9.643  0.3820E+00  0.3887E+01
  -9.633  0.4316E+00  0.3892E+01
  -9.623  0.4714E+00  0.3896E+01
  -9.613  0.4975E+00  0.3901E+01
  -9.603  0.5075E+00  0.3907E+01
  -9.593  0.5012E+00  0.3912E+01
  -9.583  0.4806E+00  0.3916E+01
  -9.573  0.4495E+00  0.3921E+01
  -9.563  0.4132E+00  0.3925E+01
  -9.553  0.3776E+00  0.3929E+01
  -9.543  0.3486E+00  0.3932E+01
  -9.533  0.3313E+00  0.3936E+01
  -9.523  0.3300E+00  0.3939E+01
  -9.513  0.3475E+00  0.3942E+01
  -9.503  0.3858E+00  0.3946E+01
  -9.493  0.4451E+00  0.3951E+01
  -9.483  0.5246E+00  0.3956E+01
  -9.473  0.6216E+00  0.3962E+01
  -9.463  0.7320E+00  0.3969E+01
  -9.453  0.8500E+00  0.3978E+01
  -9.443  0.9689E+00  0.3988E+01
  -9.433  0.1081E+01  0.3998E+01
  -9.423  0.1181E+01  0.4010E+01
  -9.413  0.1263E+01  0.4023E+01
  -9.403  0.1324E+01  0.4036E+01
  -9.393  0.1364E+01  0.4050E+01
  -9.383  0.1385E+01  0.4064E+01
  -9.373  0.1390E+01  0.4077E+01
  -9.363  0.1383E+01  0.4091E+01
  -9.353  0.1367E+01  0.4105E+01
  -9.343  0.1345E+01  0.4118E+01
  -9.333  0.1319E+01  0.4132E+01
  -9.323  0.1288E+01  0.4144E+01
  -9.313  0.1252E+01  0.4157E+01
  -9.303  0.1210E+01  0.4169E+01
  -9.293  0.1164E+01  0.4181E+01
  -9.283  0.1112E+01  0.4192E+01
  -9.273  0.1057E+01  0.4202E+01
  -9.263  0.1000E+01  0.4212E+01
  -9.253  0.9425E+00  0.4222E+01
  -9.243  0.8860E+00  0.4231E+01
  -9.233  0.8318E+00  0.4239E+01
  -9.223  0.7808E+00  0.4247E+01
  -9.213  0.7339E+00  0.4254E+01
  -9.203  0.6921E+00  0.4261E+01
  -9.193  0.6564E+00  0.4268E+01
  -9.183  0.6277E+00  0.4274E+01
  -9.173  0.6070E+00  0.4280E+01
  -9.163  0.5947E+00  0.4286E+01
  -9.153  0.5907E+00  0.4292E+01
  -9.143  0.5945E+00  0.4298E+01
  -9.133  0.6049E+00  0.4304E+01
  -9.123  0.6203E+00  0.4310E+01
  -9.113  0.6387E+00  0.4316E+01
  -9.103  0.6582E+00  0.4323E+01
  -9.093  0.6767E+00  0.4330E+01
  -9.083  0.6931E+00  0.4337E+01
  -9.073  0.7066E+00  0.4344E+01
  -9.063  0.7177E+00  0.4351E+01
  -9.053  0.7274E+00  0.4358E+01
  -9.043  0.7368E+00  0.4366E+01
  -9.033  0.7470E+00  0.4373E+01
  -9.023  0.7581E+00  0.4381E+01
  -9.013  0.7690E+00  0.4388E+01
  -9.003  0.7775E+00  0.4396E+01
  -8.993  0.7810E+00  0.4404E+01
  -8.983  0.7769E+00  0.4412E+01
  -8.973  0.7637E+00  0.4419E+01
  -8.963  0.7412E+00  0.4427E+01
  -8.953  0.7109E+00  0.4434E+01
  -8.943  0.6758E+00  0.4441E+01
  -8.933  0.6396E+00  0.4447E+01
  -8.923  0.6059E+00  0.4453E+01
  -8.913  0.5779E+00  0.4459E+01
  -8.903  0.5573E+00  0.4464E+01
  -8.893  0.5447E+00  0.4470E+01
  -8.883  0.5393E+00  0.4475E+01
  -8.873  0.5396E+00  0.4481E+01
  -8.863  0.5437E+00  0.4486E+01
  -8.853  0.5498E+00  0.4492E+01
  -8.843  0.5565E+00  0.4497E+01
  -8.833  0.5627E+00  0.4503E+01
  -8.823  0.5680E+00  0.4508E+01
  -8.813  0.5726E+00  0.4514E+01
  -8.803  0.5767E+00  0.4520E+01
  -8.793  0.5809E+00  0.4526E+01
  -8.783  0.5857E+00  0.4532E+01
  -8.773  0.5913E+00  0.4538E+01
  -8.763  0.5980E+00  0.4544E+01
  -8.753  0.6054E+00  0.4550E+01
  -8.743  0.6131E+00  0.4556E+01
  -8.733  0.6203E+00  0.4562E+01
  -8.723  0.6265E+00  0.4568E+01
  -8.713  0.6312E+00  0.4574E+01
  -8.703  0.6342E+00  0.4581E+01
  -8.693  0.6358E+00  0.4587E+01
  -8.683  0.6364E+00  0.4594E+01
  -8.673  0.6368E+00  0.4600E+01
  -8.663  0.6376E+00  0.4606E+01
  -8.653  0.6390E+00  0.4613E+01
  -8.643  0.6411E+00  0.4619E+01
  -8.633  0.6431E+00  0.4626E+01
  -8.623  0.6441E+00  0.4632E+01
  -8.613  0.6431E+00  0.4638E+01
  -8.603  0.6389E+00  0.4645E+01
  -8.593  0.6311E+00  0.4651E+01
  -8.583  0.6196E+00  0.4657E+01
  -8.573  0.6051E+00  0.4663E+01
  -8.563  0.5892E+00  0.4669E+01
  -8.553  0.5737E+00  0.4675E+01
  -8.543  0.5606E+00  0.4681E+01
  -8.533  0.5516E+00  0.4686E+01
  -8.523  0.5476E+00  0.4692E+01
  -8.513  0.5485E+00  0.4697E+01
  -8.503  0.5532E+00  0.4703E+01
  -8.493  0.5598E+00  0.4708E+01
  -8.483  0.5662E+00  0.4714E+01
  -8.473  0.5705E+00  0.4720E+01
  -8.463  0.5718E+00  0.4725E+01
  -8.453  0.5701E+00  0.4731E+01
  -8.443  0.5667E+00  0.4737E+01
  -8.433  0.5635E+00  0.4742E+01
  -8.423  0.5630E+00  0.4748E+01
  -8.413  0.5674E+00  0.4754E+01
  -8.403  0.5786E+00  0.4759E+01
  -8.393  0.5974E+00  0.4765E+01
  -8.383  0.6238E+00  0.4772E+01
  -8.373  0.6564E+00  0.4778E+01
  -8.363  0.6931E+00  0.4785E+01
  -8.353  0.7309E+00  0.4792E+01
  -8.343  0.7663E+00  0.4800E+01
  -8.333  0.7960E+00  0.4808E+01
  -8.323  0.8173E+00  0.4816E+01
  -8.313  0.8284E+00  0.4824E+01
  -8.303  0.8295E+00  0.4833E+01
  -8.293  0.8223E+00  0.4841E+01
  -8.283  0.8099E+00  0.4849E+01
  -8.273  0.7969E+00  0.4857E+01
  -8.263  0.7882E+00  0.4865E+01
  -8.253  0.7886E+00  0.4873E+01
  -8.243  0.8019E+00  0.4881E+01
  -8.233  0.8303E+00  0.4889E+01
  -8.223  0.8739E+00  0.4898E+01
  -8.213  0.9306E+00  0.4907E+01
  -8.203  0.9964E+00  0.4917E+01
  -8.193  0.1065E+01  0.4928E+01
  -8.183  0.1131E+01  0.4939E+01
  -8.173  0.1187E+01  0.4951E+01
  -8.163  0.1228E+01  0.4963E+01
  -8.153  0.1251E+01  0.4976E+01
  -8.143  0.1255E+01  0.4988E+01
  -8.133  0.1241E+01  0.5001E+01
  -8.123  0.1212E+01  0.5013E+01
  -8.113  0.1175E+01  0.5025E+01
  -8.103  0.1133E+01  0.5036E+01
  -8.093  0.1092E+01  0.5047E+01
  -8.083  0.1054E+01  0.5057E+01
  -8.073  0.1023E+01  0.5068E+01
  -8.063  0.9978E+00  0.5078E+01
  -8.053  0.9780E+00  0.5087E+01
  -8.043  0.9616E+00  0.5097E+01
  -8.033  0.9459E+00  0.5106E+01
  -8.023  0.9282E+00  0.5116E+01
  -8.013  0.9062E+00  0.5125E+01
  -8.003  0.8781E+00  0.5134E+01
  -7.993  0.8434E+00  0.5142E+01
  -7.983  0.8026E+00  0.5150E+01
  -7.973  0.7575E+00  0.5158E+01
  -7.963  0.7103E+00  0.5165E+01
  -7.953  0.6638E+00  0.5171E+01
  -7.943  0.6202E+00  0.5178E+01
  -7.933  0.5813E+00  0.5183E+01
  -7.923  0.5479E+00  0.5189E+01
  -7.913  0.5203E+00  0.5194E+01
  -7.903  0.4982E+00  0.5199E+01
  -7.893  0.4816E+00  0.5204E+01
  -7.883  0.4705E+00  0.5209E+01
  -7.873  0.4658E+00  0.5213E+01
  -7.863  0.4684E+00  0.5218E+01
  -7.853  0.4794E+00  0.5223E+01
  -7.843  0.4993E+00  0.5228E+01
  -7.833  0.5280E+00  0.5233E+01
  -7.823  0.5638E+00  0.5239E+01
  -7.813  0.6041E+00  0.5245E+01
  -7.803  0.6453E+00  0.5251E+01
  -7.793  0.6835E+00  0.5258E+01
  -7.783  0.7147E+00  0.5265E+01
  -7.773  0.7358E+00  0.5272E+01
  -7.763  0.7448E+00  0.5280E+01
  -7.753  0.7412E+00  0.5287E+01
  -7.743  0.7255E+00  0.5295E+01
  -7.733  0.6997E+00  0.5302E+01
  -7.723  0.6665E+00  0.5308E+01
  -7.713  0.6292E+00  0.5315E+01
  -7.703  0.5910E+00  0.5320E+01
  -7.693  0.5548E+00  0.5326E+01
  -7.683  0.5230E+00  0.5331E+01
  -7.673  0.4974E+00  0.5336E+01
  -7.663  0.4786E+00  0.5341E+01
  -7.653  0.4668E+00  0.5346E+01
  -7.643  0.4615E+00  0.5350E+01
  -7.633  0.4615E+00  0.5355E+01
  -7.623  0.4653E+00  0.5360E+01
  -7.613  0.4713E+00  0.5364E+01
  -7.603  0.4777E+00  0.5369E+01
  -7.593  0.4832E+00  0.5374E+01
  -7.583  0.4868E+00  0.5379E+01
  -7.573  0.4884E+00  0.5384E+01
  -7.563  0.4884E+00  0.5388E+01
  -7.553  0.4879E+00  0.5393E+01
  -7.543  0.4883E+00  0.5398E+01
  -7.533  0.4908E+00  0.5403E+01
  -7.523  0.4961E+00  0.5408E+01
  -7.513  0.5043E+00  0.5413E+01
  -7.503  0.5149E+00  0.5418E+01
  -7.493  0.5268E+00  0.5424E+01
  -7.483  0.5393E+00  0.5429E+01
  -7.473  0.5517E+00  0.5434E+01
  -7.463  0.5640E+00  0.5440E+01
  -7.453  0.5766E+00  0.5446E+01
  -7.443  0.5893E+00  0.5452E+01
  -7.433  0.6018E+00  0.5458E+01
  -7.423  0.6124E+00  0.5464E+01
  -7.413  0.6187E+00  0.5470E+01
  -7.403  0.6178E+00  0.5476E+01
  -7.393  0.6069E+00  0.5482E+01
  -7.383  0.5846E+00  0.5488E+01
  -7.373  0.5510E+00  0.5494E+01
  -7.363  0.5085E+00  0.5499E+01
  -7.353  0.4611E+00  0.5503E+01
  -7.343  0.4143E+00  0.5508E+01
  -7.333  0.3734E+00  0.5511E+01
  -7.323  0.3431E+00  0.5515E+01
  -7.313  0.3267E+00  0.5518E+01
  -7.303  0.3253E+00  0.5521E+01
  -7.293  0.3385E+00  0.5525E+01
  -7.283  0.3639E+00  0.5528E+01
  -7.273  0.3984E+00  0.5532E+01
  -7.263  0.4382E+00  0.5537E+01
  -7.253  0.4797E+00  0.5541E+01
  -7.243  0.5195E+00  0.5547E+01
  -7.233  0.5547E+00  0.5552E+01
  -7.223  0.5829E+00  0.5558E+01
  -7.213  0.6024E+00  0.5564E+01
  -7.203  0.6116E+00  0.5570E+01
  -7.193  0.6097E+00  0.5576E+01
  -7.183  0.5970E+00  0.5582E+01
  -7.173  0.5745E+00  0.5588E+01
  -7.163  0.5443E+00  0.5593E+01
  -7.153  0.5096E+00  0.5598E+01
  -7.143  0.4742E+00  0.5603E+01
  -7.133  0.4421E+00  0.5608E+01
  -7.123  0.4166E+00  0.5612E+01
  -7.113  0.4003E+00  0.5616E+01
  -7.103  0.3941E+00  0.5620E+01
  -7.093  0.3979E+00  0.5624E+01
  -7.083  0.4102E+00  0.5628E+01
  -7.073  0.4286E+00  0.5632E+01
  -7.063  0.4503E+00  0.5637E+01
  -7.053  0.4724E+00  0.5641E+01
  -7.043  0.4924E+00  0.5646E+01
  -7.033  0.5085E+00  0.5651E+01
  -7.023  0.5192E+00  0.5657E+01
  -7.013  0.5238E+00  0.5662E+01
  -7.003  0.5222E+00  0.5667E+01
  -6.993  0.5149E+00  0.5672E+01
  -6.983  0.5025E+00  0.5677E+01
  -6.973  0.4862E+00  0.5682E+01
  -6.963  0.4673E+00  0.5687E+01
  -6.953  0.4474E+00  0.5691E+01
  -6.943  0.4281E+00  0.5695E+01
  -6.933  0.4110E+00  0.5700E+01
  -6.923  0.3977E+00  0.5704E+01
  -6.913  0.3895E+00  0.5707E+01
  -6.903  0.3874E+00  0.5711E+01
  -6.893  0.3920E+00  0.5715E+01
  -6.883  0.4034E+00  0.5719E+01
  -6.873  0.4210E+00  0.5723E+01
  -6.863  0.4434E+00  0.5728E+01
  -6.853  0.4688E+00  0.5733E+01
  -6.843  0.4951E+00  0.5738E+01
  -6.833  0.5198E+00  0.5743E+01
  -6.823  0.5406E+00  0.5748E+01
  -6.813  0.5559E+00  0.5754E+01
  -6.803  0.5644E+00  0.5759E+01
  -6.793  0.5656E+00  0.5765E+01
  -6.783  0.5597E+00  0.5771E+01
  -6.773  0.5475E+00  0.5776E+01
  -6.763  0.5299E+00  0.5781E+01
  -6.753  0.5083E+00  0.5786E+01
  -6.743  0.4840E+00  0.5791E+01
  -6.733  0.4586E+00  0.5796E+01
  -6.723  0.4334E+00  0.5800E+01
  -6.713  0.4098E+00  0.5804E+01
  -6.703  0.3890E+00  0.5808E+01
  -6.693  0.3719E+00  0.5812E+01
  -6.683  0.3593E+00  0.5816E+01
  -6.673  0.3514E+00  0.5819E+01
  -6.663  0.3486E+00  0.5823E+01
  -6.653  0.3507E+00  0.5826E+01
  -6.643  0.3577E+00  0.5830E+01
  -6.633  0.3696E+00  0.5833E+01
  -6.623  0.3863E+00  0.5837E+01
  -6.613  0.4075E+00  0.5841E+01
  -6.603  0.4329E+00  0.5846E+01
  -6.593  0.4617E+00  0.5850E+01
  -6.583  0.4926E+00  0.5855E+01
  -6.573  0.5237E+00  0.5860E+01
  -6.563  0.5526E+00  0.5866E+01
  -6.553  0.5766E+00  0.5872E+01
  -6.543  0.5931E+00  0.5878E+01
  -6.533  0.6003E+00  0.5884E+01
  -6.523  0.5971E+00  0.5890E+01
  -6.513  0.5840E+00  0.5895E+01
  -6.503  0.5626E+00  0.5901E+01
  -6.493  0.5355E+00  0.5906E+01
  -6.483  0.5057E+00  0.5911E+01
  -6.473  0.4758E+00  0.5916E+01
  -6.463  0.4478E+00  0.5921E+01
  -6.453  0.4221E+00  0.5925E+01
  -6.443  0.3986E+00  0.5929E+01
  -6.433  0.3762E+00  0.5933E+01
  -6.423  0.3542E+00  0.5936E+01
  -6.413  0.3325E+00  0.5939E+01
  -6.403  0.3124E+00  0.5943E+01
  -6.393  0.2961E+00  0.5946E+01
  -6.383  0.2870E+00  0.5948E+01
  -6.373  0.2883E+00  0.5951E+01
  -6.363  0.3028E+00  0.5954E+01
  -6.353  0.3317E+00  0.5958E+01
  -6.343  0.3744E+00  0.5961E+01
  -6.333  0.4280E+00  0.5966E+01
  -6.323  0.4879E+00  0.5971E+01
  -6.313  0.5483E+00  0.5976E+01
  -6.303  0.6029E+00  0.5982E+01
  -6.293  0.6464E+00  0.5989E+01
  -6.283  0.6743E+00  0.5995E+01
  -6.273  0.6844E+00  0.6002E+01
  -6.263  0.6764E+00  0.6009E+01
  -6.253  0.6522E+00  0.6015E+01
  -6.243  0.6150E+00  0.6022E+01
  -6.233  0.5688E+00  0.6027E+01
  -6.223  0.5181E+00  0.6032E+01
  -6.213  0.4669E+00  0.6037E+01
  -6.203  0.4184E+00  0.6041E+01
  -6.193  0.3751E+00  0.6045E+01
  -6.183  0.3383E+00  0.6048E+01
  -6.173  0.3087E+00  0.6052E+01
  -6.163  0.2866E+00  0.6054E+01
  -6.153  0.2723E+00  0.6057E+01
  -6.143  0.2661E+00  0.6060E+01
  -6.133  0.2689E+00  0.6062E+01
  -6.123  0.2813E+00  0.6065E+01
  -6.113  0.3044E+00  0.6068E+01
  -6.103  0.3384E+00  0.6072E+01
  -6.093  0.3830E+00  0.6076E+01
  -6.083  0.4366E+00  0.6080E+01
  -6.073  0.4962E+00  0.6085E+01
  -6.063  0.5577E+00  0.6090E+01
  -6.053  0.6157E+00  0.6097E+01
  -6.043  0.6643E+00  0.6103E+01
  -6.033  0.6980E+00  0.6110E+01
  -6.023  0.7124E+00  0.6117E+01
  -6.013  0.7053E+00  0.6124E+01
  -6.003  0.6769E+00  0.6131E+01
  -5.993  0.6303E+00  0.6137E+01
  -5.983  0.5708E+00  0.6143E+01
  -5.973  0.5053E+00  0.6148E+01
  -5.963  0.4412E+00  0.6153E+01
  -5.953  0.3849E+00  0.6156E+01
  -5.943  0.3411E+00  0.6160E+01
  -5.933  0.3122E+00  0.6163E+01
  -5.923  0.2981E+00  0.6166E+01
  -5.913  0.2969E+00  0.6169E+01
  -5.903  0.3054E+00  0.6172E+01
  -5.893  0.3203E+00  0.6175E+01
  -5.883  0.3389E+00  0.6179E+01
  -5.873  0.3597E+00  0.6182E+01
  -5.863  0.3826E+00  0.6186E+01
  -5.853  0.4085E+00  0.6190E+01
  -5.843  0.4383E+00  0.6195E+01
  -5.833  0.4729E+00  0.6199E+01
  -5.823  0.5116E+00  0.6204E+01
  -5.813  0.5522E+00  0.6210E+01
  -5.803  0.5914E+00  0.6216E+01
  -5.793  0.6247E+00  0.6222E+01
  -5.783  0.6479E+00  0.6229E+01
  -5.773  0.6577E+00  0.6235E+01
  -5.763  0.6526E+00  0.6242E+01
  -5.753  0.6328E+00  0.6248E+01
  -5.743  0.6007E+00  0.6254E+01
  -5.733  0.5600E+00  0.6260E+01
  -5.723  0.5150E+00  0.6265E+01
  -5.713  0.4703E+00  0.6269E+01
  -5.703  0.4294E+00  0.6274E+01
  -5.693  0.3953E+00  0.6278E+01
  -5.683  0.3699E+00  0.6281E+01
  -5.673  0.3539E+00  0.6285E+01
  -5.663  0.3476E+00  0.6288E+01
  -5.653  0.3507E+00  0.6292E+01
  -5.643  0.3627E+00  0.6296E+01
  -5.633  0.3825E+00  0.6299E+01
  -5.623  0.4089E+00  0.6303E+01
  -5.613  0.4402E+00  0.6308E+01
  -5.603  0.4743E+00  0.6313E+01
  -5.593  0.5087E+00  0.6318E+01
  -5.583  0.5411E+00  0.6323E+01
  -5.573  0.5691E+00  0.6329E+01
  -5.563  0.5912E+00  0.6335E+01
  -5.553  0.6064E+00  0.6341E+01
  -5.543  0.6142E+00  0.6347E+01
  -5.533  0.6145E+00  0.6353E+01
  -5.523  0.6076E+00  0.6359E+01
  -5.513  0.5938E+00  0.6365E+01
  -5.503  0.5732E+00  0.6371E+01
  -5.493  0.5467E+00  0.6376E+01
  -5.483  0.5156E+00  0.6381E+01
  -5.473  0.4823E+00  0.6386E+01
  -5.463  0.4502E+00  0.6391E+01
  -5.453  0.4234E+00  0.6395E+01
  -5.443  0.4063E+00  0.6399E+01
  -5.433  0.4027E+00  0.6403E+01
  -5.423  0.4146E+00  0.6407E+01
  -5.413  0.4420E+00  0.6412E+01
  -5.403  0.4821E+00  0.6416E+01
  -5.393  0.5299E+00  0.6422E+01
  -5.383  0.5788E+00  0.6428E+01
  -5.373  0.6215E+00  0.6434E+01
  -5.363  0.6516E+00  0.6440E+01
  -5.353  0.6646E+00  0.6447E+01
  -5.343  0.6585E+00  0.6453E+01
  -5.333  0.6347E+00  0.6460E+01
  -5.323  0.5970E+00  0.6466E+01
  -5.313  0.5513E+00  0.6471E+01
  -5.303  0.5045E+00  0.6476E+01
  -5.293  0.4628E+00  0.6481E+01
  -5.283  0.4319E+00  0.6485E+01
  -5.273  0.4155E+00  0.6489E+01
  -5.263  0.4154E+00  0.6494E+01
  -5.253  0.4317E+00  0.6498E+01
  -5.243  0.4627E+00  0.6503E+01
  -5.233  0.5054E+00  0.6508E+01
  -5.223  0.5556E+00  0.6513E+01
  -5.213  0.6085E+00  0.6519E+01
  -5.203  0.6589E+00  0.6526E+01
  -5.193  0.7019E+00  0.6533E+01
  -5.183  0.7330E+00  0.6540E+01
  -5.173  0.7494E+00  0.6548E+01
  -5.163  0.7496E+00  0.6555E+01
  -5.153  0.7345E+00  0.6563E+01
  -5.143  0.7067E+00  0.6570E+01
  -5.133  0.6707E+00  0.6576E+01
  -5.123  0.6317E+00  0.6583E+01
  -5.113  0.5951E+00  0.6589E+01
  -5.103  0.5654E+00  0.6594E+01
  -5.093  0.5454E+00  0.6600E+01
  -5.083  0.5358E+00  0.6605E+01
  -5.073  0.5355E+00  0.6610E+01
  -5.063  0.5422E+00  0.6616E+01
  -5.053  0.5530E+00  0.6621E+01
  -5.043  0.5659E+00  0.6627E+01
  -5.033  0.5799E+00  0.6633E+01
  -5.023  0.5952E+00  0.6639E+01
  -5.013  0.6135E+00  0.6645E+01
  -5.003  0.6363E+00  0.6651E+01
  -4.993  0.6650E+00  0.6658E+01
  -4.983  0.6995E+00  0.6665E+01
  -4.973  0.7384E+00  0.6672E+01
  -4.963  0.7786E+00  0.6680E+01
  -4.953  0.8167E+00  0.6688E+01
  -4.943  0.8490E+00  0.6697E+01
  -4.933  0.8727E+00  0.6705E+01
  -4.923  0.8863E+00  0.6714E+01
  -4.913  0.8902E+00  0.6723E+01
  -4.903  0.8859E+00  0.6732E+01
  -4.893  0.8763E+00  0.6741E+01
  -4.883  0.8645E+00  0.6749E+01
  -4.873  0.8535E+00  0.6758E+01
  -4.863  0.8461E+00  0.6766E+01
  -4.853  0.8445E+00  0.6775E+01
  -4.843  0.8506E+00  0.6783E+01
  -4.833  0.8661E+00  0.6792E+01
  -4.823  0.8926E+00  0.6801E+01
  -4.813  0.9316E+00  0.6810E+01
  -4.803  0.9844E+00  0.6820E+01
  -4.793  0.1051E+01  0.6831E+01
  -4.783  0.1133E+01  0.6842E+01
  -4.773  0.1226E+01  0.6854E+01
  -4.763  0.1328E+01  0.6868E+01
  -4.753  0.1433E+01  0.6882E+01
  -4.743  0.1535E+01  0.6897E+01
  -4.733  0.1625E+01  0.6913E+01
  -4.723  0.1694E+01  0.6930E+01
  -4.713  0.1733E+01  0.6948E+01
  -4.703  0.1736E+01  0.6965E+01
  -4.693  0.1697E+01  0.6982E+01
  -4.683  0.1618E+01  0.6998E+01
  -4.673  0.1501E+01  0.7013E+01
  -4.663  0.1355E+01  0.7027E+01
  -4.653  0.1190E+01  0.7039E+01
  -4.643  0.1017E+01  0.7049E+01
  -4.633  0.8475E+00  0.7057E+01
  -4.623  0.6918E+00  0.7064E+01
  -4.613  0.5564E+00  0.7070E+01
  -4.603  0.4448E+00  0.7074E+01
  -4.593  0.3576E+00  0.7078E+01
  -4.583  0.2926E+00  0.7081E+01
  -4.573  0.2461E+00  0.7083E+01
  -4.563  0.2133E+00  0.7085E+01
  -4.553  0.1894E+00  0.7087E+01
  -4.543  0.1703E+00  0.7089E+01
  -4.533  0.1531E+00  0.7091E+01
  -4.523  0.1361E+00  0.7092E+01
  -4.513  0.1189E+00  0.7093E+01
  -4.503  0.1021E+00  0.7094E+01
  -4.493  0.8681E-01  0.7095E+01
  -4.483  0.7468E-01  0.7096E+01
  -4.473  0.6720E-01  0.7096E+01
  -4.463  0.6564E-01  0.7097E+01
  -4.453  0.7086E-01  0.7098E+01
  -4.443  0.8315E-01  0.7099E+01
  -4.433  0.1021E+00  0.7100E+01
  -4.423  0.1267E+00  0.7101E+01
  -4.413  0.1550E+00  0.7102E+01
  -4.403  0.1846E+00  0.7104E+01
  -4.393  0.2127E+00  0.7106E+01
  -4.383  0.2362E+00  0.7109E+01
  -4.373  0.2528E+00  0.7111E+01
  -4.363  0.2607E+00  0.7114E+01
  -4.353  0.2594E+00  0.7116E+01
  -4.343  0.2496E+00  0.7119E+01
  -4.333  0.2334E+00  0.7121E+01
  -4.323  0.2135E+00  0.7123E+01
  -4.313  0.1928E+00  0.7125E+01
  -4.303  0.1744E+00  0.7127E+01
  -4.293  0.1601E+00  0.7129E+01
  -4.283  0.1509E+00  0.7130E+01
  -4.273  0.1468E+00  0.7132E+01
  -4.263  0.1465E+00  0.7133E+01
  -4.253  0.1485E+00  0.7135E+01
  -4.243  0.1508E+00  0.7136E+01
  -4.233  0.1521E+00  0.7138E+01
  -4.223  0.1518E+00  0.7139E+01
  -4.213  0.1499E+00  0.7141E+01
  -4.203  0.1477E+00  0.7142E+01
  -4.193  0.1466E+00  0.7144E+01
  -4.183  0.1487E+00  0.7145E+01
  -4.173  0.1557E+00  0.7147E+01
  -4.163  0.1692E+00  0.7148E+01
  -4.153  0.1905E+00  0.7150E+01
  -4.143  0.2206E+00  0.7152E+01
  -4.133  0.2605E+00  0.7155E+01
  -4.123  0.3112E+00  0.7158E+01
  -4.113  0.3734E+00  0.7162E+01
  -4.103  0.4477E+00  0.7166E+01
  -4.093  0.5337E+00  0.7172E+01
  -4.083  0.6298E+00  0.7178E+01
  -4.073  0.7330E+00  0.7185E+01
  -4.063  0.8382E+00  0.7194E+01
  -4.053  0.9395E+00  0.7203E+01
  -4.043  0.1030E+01  0.7213E+01
  -4.033  0.1103E+01  0.7224E+01
  -4.023  0.1154E+01  0.7236E+01
  -4.013  0.1181E+01  0.7248E+01
  -4.003  0.1181E+01  0.7260E+01
  -3.993  0.1159E+01  0.7271E+01
  -3.983  0.1117E+01  0.7282E+01
  -3.973  0.1061E+01  0.7293E+01
  -3.963  0.9973E+00  0.7303E+01
  -3.953  0.9306E+00  0.7312E+01
  -3.943  0.8652E+00  0.7321E+01
  -3.933  0.8042E+00  0.7329E+01
  -3.923  0.7493E+00  0.7336E+01
  -3.913  0.7014E+00  0.7343E+01
  -3.903  0.6606E+00  0.7350E+01
  -3.893  0.6266E+00  0.7356E+01
  -3.883  0.5991E+00  0.7362E+01
  -3.873  0.5777E+00  0.7368E+01
  -3.863  0.5621E+00  0.7374E+01
  -3.853  0.5520E+00  0.7379E+01
  -3.843  0.5469E+00  0.7385E+01
  -3.833  0.5463E+00  0.7390E+01
  -3.823  0.5490E+00  0.7396E+01
  -3.813  0.5537E+00  0.7401E+01
  -3.803  0.5588E+00  0.7407E+01
  -3.793  0.5624E+00  0.7412E+01
  -3.783  0.5628E+00  0.7418E+01
  -3.773  0.5587E+00  0.7424E+01
  -3.763  0.5494E+00  0.7429E+01
  -3.753  0.5350E+00  0.7434E+01
  -3.743  0.5162E+00  0.7440E+01
  -3.733  0.4945E+00  0.7445E+01
  -3.723  0.4712E+00  0.7449E+01
  -3.713  0.4481E+00  0.7454E+01
  -3.703  0.4263E+00  0.7458E+01
  -3.693  0.4068E+00  0.7462E+01
  -3.683  0.3901E+00  0.7466E+01
  -3.673  0.3762E+00  0.7470E+01
  -3.663  0.3649E+00  0.7473E+01
  -3.653  0.3558E+00  0.7477E+01
  -3.643  0.3485E+00  0.7480E+01
  -3.633  0.3426E+00  0.7484E+01
  -3.623  0.3380E+00  0.7487E+01
  -3.613  0.3346E+00  0.7491E+01
  -3.603  0.3325E+00  0.7494E+01
  -3.593  0.3320E+00  0.7497E+01
  -3.583  0.3334E+00  0.7501E+01
  -3.573  0.3371E+00  0.7504E+01
  -3.563  0.3434E+00  0.7507E+01
  -3.553  0.3524E+00  0.7511E+01
  -3.543  0.3638E+00  0.7515E+01
  -3.533  0.3769E+00  0.7518E+01
  -3.523  0.3907E+00  0.7522E+01
  -3.513  0.4036E+00  0.7526E+01
  -3.503  0.4140E+00  0.7530E+01
  -3.493  0.4203E+00  0.7535E+01
  -3.483  0.4215E+00  0.7539E+01
  -3.473  0.4170E+00  0.7543E+01
  -3.463  0.4071E+00  0.7547E+01
  -3.453  0.3926E+00  0.7551E+01
  -3.443  0.3751E+00  0.7555E+01
  -3.433  0.3561E+00  0.7558E+01
  -3.423  0.3371E+00  0.7562E+01
  -3.413  0.3195E+00  0.7565E+01
  -3.403  0.3041E+00  0.7568E+01
  -3.393  0.2913E+00  0.7571E+01
  -3.383  0.2811E+00  0.7574E+01
  -3.373  0.2733E+00  0.7576E+01
  -3.363  0.2675E+00  0.7579E+01
  -3.353  0.2632E+00  0.7582E+01
  -3.343  0.2603E+00  0.7584E+01
  -3.333  0.2585E+00  0.7587E+01
  -3.323  0.2578E+00  0.7589E+01
  -3.313  0.2583E+00  0.7592E+01
  -3.303  0.2604E+00  0.7595E+01
  -3.293  0.2645E+00  0.7597E+01
  -3.283  0.2708E+00  0.7600E+01
  -3.273  0.2798E+00  0.7603E+01
  -3.263  0.2912E+00  0.7606E+01
  -3.253  0.3049E+00  0.7609E+01
  -3.243  0.3199E+00  0.7612E+01
  -3.233  0.3350E+00  0.7615E+01
  -3.223  0.3488E+00  0.7619E+01
  -3.213  0.3596E+00  0.7622E+01
  -3.203  0.3660E+00  0.7626E+01
  -3.193  0.3669E+00  0.7630E+01
  -3.183  0.3621E+00  0.7633E+01
  -3.173  0.3521E+00  0.7637E+01
  -3.163  0.3378E+00  0.7640E+01
  -3.153  0.3209E+00  0.7643E+01
  -3.143  0.3029E+00  0.7646E+01
  -3.133  0.2853E+00  0.7649E+01
  -3.123  0.2693E+00  0.7652E+01
  -3.113  0.2554E+00  0.7655E+01
  -3.103  0.2441E+00  0.7657E+01
  -3.093  0.2353E+00  0.7659E+01
  -3.083  0.2288E+00  0.7662E+01
  -3.073  0.2242E+00  0.7664E+01
  -3.063  0.2212E+00  0.7666E+01
  -3.053  0.2194E+00  0.7668E+01
  -3.043  0.2187E+00  0.7670E+01
  -3.033  0.2192E+00  0.7673E+01
  -3.023  0.2212E+00  0.7675E+01
  -3.013  0.2251E+00  0.7677E+01
  -3.003  0.2313E+00  0.7679E+01
  -2.993  0.2402E+00  0.7682E+01
  -2.983  0.2516E+00  0.7684E+01
  -2.973  0.2653E+00  0.7687E+01
  -2.963  0.2806E+00  0.7690E+01
  -2.953  0.2963E+00  0.7693E+01
  -2.943  0.3111E+00  0.7696E+01
  -2.933  0.3234E+00  0.7699E+01
  -2.923  0.3320E+00  0.7702E+01
  -2.913  0.3355E+00  0.7706E+01
  -2.903  0.3333E+00  0.7709E+01
  -2.893  0.3256E+00  0.7712E+01
  -2.883  0.3131E+00  0.7716E+01
  -2.873  0.2971E+00  0.7719E+01
  -2.863  0.2795E+00  0.7721E+01
  -2.853  0.2619E+00  0.7724E+01
  -2.843  0.2458E+00  0.7726E+01
  -2.833  0.2320E+00  0.7729E+01
  -2.823  0.2209E+00  0.7731E+01
  -2.813  0.2121E+00  0.7733E+01
  -2.803  0.2055E+00  0.7735E+01
  -2.793  0.2005E+00  0.7737E+01
  -2.783  0.1971E+00  0.7739E+01
  -2.773  0.1953E+00  0.7741E+01
  -2.763  0.1949E+00  0.7743E+01
  -2.753  0.1963E+00  0.7745E+01
  -2.743  0.1994E+00  0.7747E+01
  -2.733  0.2042E+00  0.7749E+01
  -2.723  0.2111E+00  0.7751E+01
  -2.713  0.2200E+00  0.7753E+01
  -2.703  0.2312E+00  0.7756E+01
  -2.693  0.2447E+00  0.7758E+01
  -2.683  0.2600E+00  0.7761E+01
  -2.673  0.2761E+00  0.7763E+01
  -2.663  0.2916E+00  0.7766E+01
  -2.653  0.3045E+00  0.7769E+01
  -2.643  0.3130E+00  0.7772E+01
  -2.633  0.3157E+00  0.7776E+01
  -2.623  0.3122E+00  0.7779E+01
  -2.613  0.3029E+00  0.7782E+01
  -2.603  0.2892E+00  0.7785E+01
  -2.593  0.2728E+00  0.7787E+01
  -2.583  0.2557E+00  0.7790E+01
  -2.573  0.2394E+00  0.7792E+01
  -2.563  0.2247E+00  0.7795E+01
  -2.553  0.2120E+00  0.7797E+01
  -2.543  0.2012E+00  0.7799E+01
  -2.533  0.1924E+00  0.7801E+01
  -2.523  0.1854E+00  0.7803E+01
  -2.513  0.1803E+00  0.7804E+01
  -2.503  0.1773E+00  0.7806E+01
  -2.493  0.1766E+00  0.7808E+01
  -2.483  0.1782E+00  0.7810E+01
  -2.473  0.1819E+00  0.7811E+01
  -2.463  0.1874E+00  0.7813E+01
  -2.453  0.1947E+00  0.7815E+01
  -2.443  0.2036E+00  0.7817E+01
  -2.433  0.2143E+00  0.7819E+01
  -2.423  0.2270E+00  0.7822E+01
  -2.413  0.2416E+00  0.7824E+01
  -2.403  0.2576E+00  0.7827E+01
  -2.393  0.2735E+00  0.7829E+01
  -2.383  0.2877E+00  0.7832E+01
  -2.373  0.2981E+00  0.7835E+01
  -2.363  0.3028E+00  0.7838E+01
  -2.353  0.3011E+00  0.7841E+01
  -2.343  0.2927E+00  0.7844E+01
  -2.333  0.2790E+00  0.7847E+01
  -2.323  0.2619E+00  0.7850E+01
  -2.313  0.2437E+00  0.7852E+01
  -2.303  0.2264E+00  0.7854E+01
  -2.293  0.2115E+00  0.7857E+01
  -2.283  0.1994E+00  0.7858E+01
  -2.273  0.1900E+00  0.7860E+01
  -2.263  0.1825E+00  0.7862E+01
  -2.253  0.1764E+00  0.7864E+01
  -2.243  0.1712E+00  0.7866E+01
  -2.233  0.1671E+00  0.7867E+01
  -2.223  0.1648E+00  0.7869E+01
  -2.213  0.1650E+00  0.7871E+01
  -2.203  0.1685E+00  0.7872E+01
  -2.193  0.1756E+00  0.7874E+01
  -2.183  0.1863E+00  0.7876E+01
  -2.173  0.1998E+00  0.7878E+01
  -2.163  0.2151E+00  0.7880E+01
  -2.153  0.2309E+00  0.7882E+01
  -2.143  0.2462E+00  0.7885E+01
  -2.133  0.2598E+00  0.7887E+01
  -2.123  0.2710E+00  0.7890E+01
  -2.113  0.2791E+00  0.7893E+01
  -2.103  0.2836E+00  0.7896E+01
  -2.093  0.2840E+00  0.7899E+01
  -2.083  0.2802E+00  0.7901E+01
  -2.073  0.2721E+00  0.7904E+01
  -2.063  0.2599E+00  0.7907E+01
  -2.053  0.2443E+00  0.7909E+01
  -2.043  0.2266E+00  0.7911E+01
  -2.033  0.2083E+00  0.7914E+01
  -2.023  0.1910E+00  0.7915E+01
  -2.013  0.1764E+00  0.7917E+01
  -2.003  0.1657E+00  0.7919E+01
  -1.993  0.1593E+00  0.7921E+01
  -1.983  0.1572E+00  0.7922E+01
  -1.973  0.1586E+00  0.7924E+01
  -1.963  0.1625E+00  0.7925E+01
  -1.953  0.1678E+00  0.7927E+01
  -1.943  0.1738E+00  0.7929E+01
  -1.933  0.1805E+00  0.7931E+01
  -1.923  0.1883E+00  0.7932E+01
  -1.913  0.1980E+00  0.7934E+01
  -1.903  0.2102E+00  0.7936E+01
  -1.893  0.2249E+00  0.7939E+01
  -1.883  0.2415E+00  0.7941E+01
  -1.873  0.2581E+00  0.7944E+01
  -1.863  0.2726E+00  0.7946E+01
  -1.853  0.2824E+00  0.7949E+01
  -1.843  0.2856E+00  0.7952E+01
  -1.833  0.2811E+00  0.7955E+01
  -1.823  0.2694E+00  0.7958E+01
  -1.813  0.2520E+00  0.7960E+01
  -1.803  0.2315E+00  0.7962E+01
  -1.793  0.2108E+00  0.7965E+01
  -1.783  0.1924E+00  0.7967E+01
  -1.773  0.1782E+00  0.7968E+01
  -1.763  0.1688E+00  0.7970E+01
  -1.753  0.1638E+00  0.7972E+01
  -1.743  0.1621E+00  0.7973E+01
  -1.733  0.1623E+00  0.7975E+01
  -1.723  0.1633E+00  0.7976E+01
  -1.713  0.1647E+00  0.7978E+01
  -1.703  0.1669E+00  0.7980E+01
  -1.693  0.1707E+00  0.7982E+01
  -1.683  0.1775E+00  0.7983E+01
  -1.673  0.1882E+00  0.7985E+01
  -1.663  0.2032E+00  0.7987E+01
  -1.653  0.2215E+00  0.7989E+01
  -1.643  0.2414E+00  0.7992E+01
  -1.633  0.2600E+00  0.7994E+01
  -1.623  0.2745E+00  0.7997E+01
  -1.613  0.2823E+00  0.8000E+01
  -1.603  0.2820E+00  0.8003E+01
  -1.593  0.2737E+00  0.8006E+01
  -1.583  0.2587E+00  0.8008E+01
  -1.573  0.2396E+00  0.8011E+01
  -1.563  0.2193E+00  0.8013E+01
  -1.553  0.2007E+00  0.8015E+01
  -1.543  0.1856E+00  0.8017E+01
  -1.533  0.1749E+00  0.8018E+01
  -1.523  0.1685E+00  0.8020E+01
  -1.513  0.1653E+00  0.8022E+01
  -1.503  0.1639E+00  0.8023E+01
  -1.493  0.1634E+00  0.8025E+01
  -1.483  0.1632E+00  0.8027E+01
  -1.473  0.1637E+00  0.8028E+01
  -1.463  0.1659E+00  0.8030E+01
  -1.453  0.1711E+00  0.8032E+01
  -1.443  0.1805E+00  0.8033E+01
  -1.433  0.1945E+00  0.8035E+01
  -1.423  0.2125E+00  0.8037E+01
  -1.413  0.2329E+00  0.8040E+01
  -1.403  0.2533E+00  0.8042E+01
  -1.393  0.2708E+00  0.8045E+01
  -1.383  0.2829E+00  0.8048E+01
  -1.373  0.2881E+00  0.8051E+01
  -1.363  0.2860E+00  0.8054E+01
  -1.353  0.2775E+00  0.8056E+01
  -1.343  0.2642E+00  0.8059E+01
  -1.333  0.2486E+00  0.8062E+01
  -1.323  0.2327E+00  0.8064E+01
  -1.313  0.2182E+00  0.8066E+01
  -1.303  0.2057E+00  0.8068E+01
  -1.293  0.1953E+00  0.8070E+01
  -1.283  0.1867E+00  0.8072E+01
  -1.273  0.1793E+00  0.8074E+01
  -1.263  0.1731E+00  0.8075E+01
  -1.253  0.1682E+00  0.8077E+01
  -1.243  0.1654E+00  0.8079E+01
  -1.233  0.1656E+00  0.8080E+01
  -1.223  0.1694E+00  0.8082E+01
  -1.213  0.1773E+00  0.8084E+01
  -1.203  0.1890E+00  0.8086E+01
  -1.193  0.2039E+00  0.8088E+01
  -1.183  0.2208E+00  0.8090E+01
  -1.173  0.2383E+00  0.8092E+01
  -1.163  0.2552E+00  0.8095E+01
  -1.153  0.2702E+00  0.8098E+01
  -1.143  0.2823E+00  0.8100E+01
  -1.133  0.2909E+00  0.8103E+01
  -1.123  0.2952E+00  0.8106E+01
  -1.113  0.2951E+00  0.8109E+01
  -1.103  0.2904E+00  0.8112E+01
  -1.093  0.2814E+00  0.8115E+01
  -1.083  0.2687E+00  0.8118E+01
  -1.073  0.2536E+00  0.8120E+01
  -1.063  0.2374E+00  0.8123E+01
  -1.053  0.2217E+00  0.8125E+01
  -1.043  0.2079E+00  0.8127E+01
  -1.033  0.1970E+00  0.8129E+01
  -1.023  0.1895E+00  0.8131E+01
  -1.013  0.1853E+00  0.8133E+01
  -1.003  0.1839E+00  0.8134E+01
  -0.993  0.1846E+00  0.8136E+01
  -0.983  0.1868E+00  0.8138E+01
  -0.973  0.1905E+00  0.8140E+01
  -0.963  0.1958E+00  0.8142E+01
  -0.953  0.2033E+00  0.8144E+01
  -0.943  0.2137E+00  0.8146E+01
  -0.933  0.2273E+00  0.8148E+01
  -0.923  0.2436E+00  0.8151E+01
  -0.913  0.2618E+00  0.8154E+01
  -0.903  0.2804E+00  0.8156E+01
  -0.893  0.2974E+00  0.8159E+01
  -0.883  0.3112E+00  0.8162E+01
  -0.873  0.3203E+00  0.8166E+01
  -0.863  0.3239E+00  0.8169E+01
  -0.853  0.3220E+00  0.8172E+01
  -0.843  0.3151E+00  0.8175E+01
  -0.833  0.3041E+00  0.8178E+01
  -0.823  0.2904E+00  0.8181E+01
  -0.813  0.2754E+00  0.8184E+01
  -0.803  0.2605E+00  0.8187E+01
  -0.793  0.2467E+00  0.8189E+01
  -0.783  0.2351E+00  0.8191E+01
  -0.773  0.2260E+00  0.8194E+01
  -0.763  0.2197E+00  0.8196E+01
  -0.753  0.2160E+00  0.8198E+01
  -0.743  0.2145E+00  0.8200E+01
  -0.733  0.2148E+00  0.8202E+01
  -0.723  0.2168E+00  0.8204E+01
  -0.713  0.2203E+00  0.8207E+01
  -0.703  0.2257E+00  0.8209E+01
  -0.693  0.2333E+00  0.8211E+01
  -0.683  0.2435E+00  0.8214E+01
  -0.673  0.2565E+00  0.8216E+01
  -0.663  0.2721E+00  0.8219E+01
  -0.653  0.2899E+00  0.8222E+01
  -0.643  0.3088E+00  0.8225E+01
  -0.633  0.3275E+00  0.8228E+01
  -0.623  0.3446E+00  0.8232E+01
  -0.613  0.3583E+00  0.8235E+01
  -0.603  0.3674E+00  0.8239E+01
  -0.593  0.3710E+00  0.8243E+01
  -0.583  0.3690E+00  0.8246E+01
  -0.573  0.3618E+00  0.8250E+01
  -0.563  0.3506E+00  0.8253E+01
  -0.553  0.3370E+00  0.8257E+01
  -0.543  0.3227E+00  0.8260E+01
  -0.533  0.3090E+00  0.8263E+01
  -0.523  0.2972E+00  0.8266E+01
  -0.513  0.2879E+00  0.8269E+01
  -0.503  0.2814E+00  0.8272E+01
  -0.493  0.2776E+00  0.8275E+01
  -0.483  0.2762E+00  0.8277E+01
  -0.473  0.2768E+00  0.8280E+01
  -0.463  0.2791E+00  0.8283E+01
  -0.453  0.2828E+00  0.8286E+01
  -0.443  0.2878E+00  0.8289E+01
  -0.433  0.2942E+00  0.8292E+01
  -0.423  0.3022E+00  0.8295E+01
  -0.413  0.3122E+00  0.8298E+01
  -0.403  0.3246E+00  0.8301E+01
  -0.393  0.3397E+00  0.8304E+01
  -0.383  0.3575E+00  0.8308E+01
  -0.373  0.3775E+00  0.8312E+01
  -0.363  0.3989E+00  0.8316E+01
  -0.353  0.4203E+00  0.8320E+01
  -0.343  0.4402E+00  0.8324E+01
  -0.333  0.4568E+00  0.8329E+01
  -0.323  0.4689E+00  0.8334E+01
  -0.313  0.4758E+00  0.8338E+01
  -0.303  0.4773E+00  0.8343E+01
  -0.293  0.4741E+00  0.8348E+01
  -0.283  0.4675E+00  0.8352E+01
  -0.273  0.4590E+00  0.8357E+01
  -0.263  0.4503E+00  0.8362E+01
  -0.253  0.4429E+00  0.8366E+01
  -0.243  0.4379E+00  0.8370E+01
  -0.233  0.4358E+00  0.8375E+01
  -0.223  0.4369E+00  0.8379E+01
  -0.213  0.4411E+00  0.8384E+01
  -0.203  0.4482E+00  0.8388E+01
  -0.193  0.4580E+00  0.8393E+01
  -0.183  0.4701E+00  0.8397E+01
  -0.173  0.4845E+00  0.8402E+01
  -0.163  0.5013E+00  0.8407E+01
  -0.153  0.5205E+00  0.8412E+01
  -0.143  0.5427E+00  0.8418E+01
  -0.133  0.5682E+00  0.8423E+01
  -0.123  0.5977E+00  0.8429E+01
  -0.113  0.6317E+00  0.8436E+01
  -0.103  0.6708E+00  0.8442E+01
  -0.093  0.7152E+00  0.8450E+01
  -0.083  0.7653E+00  0.8457E+01
  -0.073  0.8210E+00  0.8465E+01
  -0.063  0.8822E+00  0.8474E+01
  -0.053  0.9491E+00  0.8484E+01
  -0.043  0.1022E+01  0.8494E+01
  -0.033  0.1101E+01  0.8505E+01
  -0.023  0.1188E+01  0.8517E+01
  -0.013  0.1283E+01  0.8530E+01
  -0.003  0.1386E+01  0.8544E+01
   0.007  0.1497E+01  0.8559E+01
   0.017  0.1611E+01  0.8575E+01
   0.027  0.1722E+01  0.8592E+01
   0.037  0.1822E+01  0.8610E+01
   0.047  0.1900E+01  0.8629E+01
   0.057  0.1945E+01  0.8649E+01
   0.067  0.1947E+01  0.8668E+01
   0.077  0.1902E+01  0.8687E+01
   0.087  0.1807E+01  0.8705E+01
   0.097  0.1668E+01  0.8722E+01
   0.107  0.1495E+01  0.8737E+01
   0.117  0.1300E+01  0.8750E+01
   0.127  0.1100E+01  0.8761E+01
   0.137  0.9085E+00  0.8770E+01
   0.147  0.7362E+00  0.8777E+01
   0.157  0.5908E+00  0.8783E+01
   0.167  0.4755E+00  0.8788E+01
   0.177  0.3897E+00  0.8792E+01
   0.187  0.3301E+00  0.8795E+01
   0.197  0.2914E+00  0.8798E+01
   0.207  0.2681E+00  0.8801E+01
   0.217  0.2550E+00  0.8803E+01
   0.227  0.2478E+00  0.8806E+01
   0.237  0.2432E+00  0.8808E+01
   0.247  0.2394E+00  0.8810E+01
   0.257  0.2352E+00  0.8813E+01
   0.267  0.2303E+00  0.8815E+01
   0.277  0.2248E+00  0.8817E+01
   0.287  0.2188E+00  0.8820E+01
   0.297  0.2125E+00  0.8822E+01
   0.307  0.2060E+00  0.8824E+01
   0.317  0.1987E+00  0.8826E+01
   0.327  0.1903E+00  0.8828E+01
   0.337  0.1800E+00  0.8829E+01
   0.347  0.1673E+00  0.8831E+01
   0.357  0.1521E+00  0.8833E+01
   0.367  0.1348E+00  0.8834E+01
   0.377  0.1161E+00  0.8835E+01
   0.387  0.9727E-01  0.8836E+01
   0.397  0.7972E-01  0.8837E+01
   0.407  0.6481E-01  0.8838E+01
   0.417  0.5378E-01  0.8838E+01
   0.427  0.4759E-01  0.8839E+01
   0.437  0.4692E-01  0.8839E+01
   0.447  0.5211E-01  0.8840E+01
   0.457  0.6317E-01  0.8840E+01
   0.467  0.7974E-01  0.8841E+01
   0.477  0.1010E+00  0.8842E+01
   0.487  0.1258E+00  0.8843E+01
   0.497  0.1524E+00  0.8845E+01
   0.507  0.1789E+00  0.8847E+01
   0.517  0.2029E+00  0.8849E+01
   0.527  0.2224E+00  0.8851E+01
   0.537  0.2356E+00  0.8853E+01
   0.547  0.2412E+00  0.8856E+01
   0.557  0.2386E+00  0.8858E+01
   0.567  0.2281E+00  0.8860E+01
   0.577  0.2107E+00  0.8862E+01
   0.587  0.1882E+00  0.8864E+01
   0.597  0.1626E+00  0.8866E+01
   0.607  0.1361E+00  0.8867E+01
   0.617  0.1109E+00  0.8868E+01
   0.627  0.8893E-01  0.8869E+01
   0.637  0.7156E-01  0.8870E+01
   0.647  0.5977E-01  0.8871E+01
   0.657  0.5400E-01  0.8871E+01
   0.667  0.5423E-01  0.8872E+01
   0.677  0.5994E-01  0.8872E+01
   0.687  0.7017E-01  0.8873E+01
   0.697  0.8355E-01  0.8874E+01
   0.707  0.9836E-01  0.8875E+01
   0.717  0.1127E+00  0.8876E+01
   0.727  0.1247E+00  0.8877E+01
   0.737  0.1329E+00  0.8878E+01
   0.747  0.1363E+00  0.8880E+01
   0.757  0.1348E+00  0.8881E+01
   0.767  0.1292E+00  0.8882E+01
   0.777  0.1208E+00  0.8884E+01
   0.787  0.1115E+00  0.8885E+01
   0.797  0.1034E+00  0.8886E+01
   0.807  0.9820E-01  0.8887E+01
   0.817  0.9700E-01  0.8888E+01
   0.827  0.1001E+00  0.8889E+01
   0.837  0.1070E+00  0.8890E+01
   0.847  0.1163E+00  0.8891E+01
   0.857  0.1264E+00  0.8892E+01
   0.867  0.1355E+00  0.8894E+01
   0.877  0.1422E+00  0.8895E+01
   0.887  0.1456E+00  0.8897E+01
   0.897  0.1458E+00  0.8898E+01
   0.907  0.1436E+00  0.8899E+01
   0.917  0.1402E+00  0.8901E+01
   0.927  0.1371E+00  0.8902E+01
   0.937  0.1355E+00  0.8904E+01
   0.947  0.1360E+00  0.8905E+01
   0.957  0.1382E+00  0.8906E+01
   0.967  0.1415E+00  0.8908E+01
   0.977  0.1442E+00  0.8909E+01
   0.987  0.1448E+00  0.8911E+01
   0.997  0.1420E+00  0.8912E+01
   1.007  0.1352E+00  0.8913E+01
   1.017  0.1244E+00  0.8915E+01
   1.027  0.1102E+00  0.8916E+01
   1.037  0.9396E-01  0.8917E+01
   1.047  0.7710E-01  0.8917E+01
   1.057  0.6110E-01  0.8918E+01
   1.067  0.4722E-01  0.8918E+01
   1.077  0.3638E-01  0.8919E+01
   1.087  0.2918E-01  0.8919E+01
   1.097  0.2600E-01  0.8919E+01
   1.107  0.2700E-01  0.8920E+01
   1.117  0.3225E-01  0.8920E+01
   1.127  0.4168E-01  0.8920E+01
   1.137  0.5509E-01  0.8921E+01
   1.147  0.7202E-01  0.8922E+01
   1.157  0.9175E-01  0.8923E+01
   1.167  0.1133E+00  0.8924E+01
   1.177  0.1353E+00  0.8925E+01
   1.187  0.1566E+00  0.8927E+01
   1.197  0.1757E+00  0.8928E+01
   1.207  0.1917E+00  0.8930E+01
   1.217  0.2036E+00  0.8932E+01
   1.227  0.2109E+00  0.8934E+01
   1.237  0.2133E+00  0.8937E+01
   1.247  0.2106E+00  0.8939E+01
   1.257  0.2031E+00  0.8941E+01
   1.267  0.1909E+00  0.8943E+01
   1.277  0.1747E+00  0.8944E+01
   1.287  0.1554E+00  0.8946E+01
   1.297  0.1340E+00  0.8947E+01
   1.307  0.1118E+00  0.8948E+01
   1.317  0.9012E-01  0.8949E+01
   1.327  0.7004E-01  0.8950E+01
   1.337  0.5245E-01  0.8951E+01
   1.347  0.3783E-01  0.8951E+01
   1.357  0.2637E-01  0.8951E+01
   1.367  0.1797E-01  0.8951E+01
   1.377  0.1243E-01  0.8951E+01
   1.387  0.9583E-02  0.8952E+01
   1.397  0.9509E-02  0.8952E+01
   1.407  0.1266E-01  0.8952E+01
   1.417  0.2004E-01  0.8952E+01
   1.427  0.3329E-01  0.8952E+01
   1.437  0.5477E-01  0.8953E+01
   1.447  0.8743E-01  0.8954E+01
   1.457  0.1345E+00  0.8955E+01
   1.467  0.1993E+00  0.8957E+01
   1.477  0.2840E+00  0.8960E+01
   1.487  0.3895E+00  0.8964E+01
   1.497  0.5142E+00  0.8969E+01
   1.507  0.6538E+00  0.8976E+01
   1.517  0.8010E+00  0.8984E+01
   1.527  0.9464E+00  0.8993E+01
   1.537  0.1079E+01  0.9004E+01
   1.547  0.1190E+01  0.9016E+01
   1.557  0.1269E+01  0.9028E+01
   1.567  0.1313E+01  0.9042E+01
   1.577  0.1321E+01  0.9055E+01
   1.587  0.1295E+01  0.9068E+01
   1.597  0.1242E+01  0.9080E+01
   1.607  0.1170E+01  0.9092E+01
   1.617  0.1087E+01  0.9103E+01
   1.627  0.1002E+01  0.9113E+01
   1.637  0.9195E+00  0.9122E+01
   1.647  0.8445E+00  0.9130E+01
   1.657  0.7788E+00  0.9138E+01
   1.667  0.7230E+00  0.9145E+01
   1.677  0.6763E+00  0.9152E+01
   1.687  0.6376E+00  0.9158E+01
   1.697  0.6056E+00  0.9165E+01
   1.707  0.5789E+00  0.9170E+01
   1.717  0.5568E+00  0.9176E+01
   1.727  0.5385E+00  0.9181E+01
   1.737  0.5240E+00  0.9186E+01
   1.747  0.5132E+00  0.9192E+01
   1.757  0.5064E+00  0.9197E+01
   1.767  0.5041E+00  0.9202E+01
   1.777  0.5069E+00  0.9207E+01
   1.787  0.5151E+00  0.9212E+01
   1.797  0.5291E+00  0.9217E+01
   1.807  0.5486E+00  0.9223E+01
   1.817  0.5723E+00  0.9228E+01
   1.827  0.5982E+00  0.9234E+01
   1.837  0.6231E+00  0.9241E+01
   1.847  0.6433E+00  0.9247E+01
   1.857  0.6554E+00  0.9254E+01
   1.867  0.6566E+00  0.9260E+01
   1.877  0.6460E+00  0.9267E+01
   1.887  0.6244E+00  0.9273E+01
   1.897  0.5940E+00  0.9279E+01
   1.907  0.5583E+00  0.9284E+01
   1.917  0.5209E+00  0.9290E+01
   1.927  0.4846E+00  0.9295E+01
   1.937  0.4514E+00  0.9299E+01
   1.947  0.4220E+00  0.9303E+01
   1.957  0.3965E+00  0.9307E+01
   1.967  0.3746E+00  0.9311E+01
   1.977  0.3560E+00  0.9315E+01
   1.987  0.3406E+00  0.9318E+01
   1.997  0.3286E+00  0.9321E+01
   2.007  0.3201E+00  0.9324E+01
   2.017  0.3150E+00  0.9328E+01
   2.027  0.3128E+00  0.9331E+01
   2.037  0.3127E+00  0.9334E+01
   2.047  0.3136E+00  0.9337E+01
   2.057  0.3148E+00  0.9340E+01
   2.067  0.3159E+00  0.9343E+01
   2.077  0.3173E+00  0.9346E+01
   2.087  0.3197E+00  0.9350E+01
   2.097  0.3244E+00  0.9353E+01
   2.107  0.3330E+00  0.9356E+01
   2.117  0.3466E+00  0.9360E+01
   2.127  0.3658E+00  0.9363E+01
   2.137  0.3904E+00  0.9367E+01
   2.147  0.4190E+00  0.9371E+01
   2.157  0.4497E+00  0.9376E+01
   2.167  0.4796E+00  0.9381E+01
   2.177  0.5054E+00  0.9386E+01
   2.187  0.5242E+00  0.9391E+01
   2.197  0.5333E+00  0.9396E+01
   2.207  0.5313E+00  0.9402E+01
   2.217  0.5177E+00  0.9407E+01
   2.227  0.4937E+00  0.9412E+01
   2.237  0.4614E+00  0.9416E+01
   2.247  0.4242E+00  0.9421E+01
   2.257  0.3857E+00  0.9424E+01
   2.267  0.3495E+00  0.9428E+01
   2.277  0.3187E+00  0.9431E+01
   2.287  0.2955E+00  0.9434E+01
   2.297  0.2810E+00  0.9437E+01
   2.307  0.2751E+00  0.9440E+01
   2.317  0.2769E+00  0.9442E+01
   2.327  0.2851E+00  0.9445E+01
   2.337  0.2985E+00  0.9448E+01
   2.347  0.3166E+00  0.9451E+01
   2.357  0.3404E+00  0.9455E+01
   2.367  0.3720E+00  0.9459E+01
   2.377  0.4145E+00  0.9463E+01
   2.387  0.4718E+00  0.9467E+01
   2.397  0.5472E+00  0.9473E+01
   2.407  0.6426E+00  0.9479E+01
   2.417  0.7571E+00  0.9487E+01
   2.427  0.8870E+00  0.9496E+01
   2.437  0.1026E+01  0.9506E+01
   2.447  0.1164E+01  0.9518E+01
   2.457  0.1291E+01  0.9531E+01
   2.467  0.1399E+01  0.9545E+01
   2.477  0.1478E+01  0.9559E+01
   2.487  0.1524E+01  0.9575E+01
   2.497  0.1535E+01  0.9590E+01
   2.507  0.1515E+01  0.9605E+01
   2.517  0.1468E+01  0.9620E+01
   2.527  0.1402E+01  0.9634E+01
   2.537  0.1323E+01  0.9647E+01
   2.547  0.1240E+01  0.9659E+01
   2.557  0.1160E+01  0.9671E+01
   2.567  0.1086E+01  0.9682E+01
   2.577  0.1023E+01  0.9692E+01
   2.587  0.9723E+00  0.9702E+01
   2.597  0.9327E+00  0.9711E+01
   2.607  0.9024E+00  0.9720E+01
   2.617  0.8784E+00  0.9729E+01
   2.627  0.8572E+00  0.9738E+01
   2.637  0.8353E+00  0.9746E+01
   2.647  0.8100E+00  0.9754E+01
   2.657  0.7796E+00  0.9762E+01
   2.667  0.7440E+00  0.9769E+01
   2.677  0.7045E+00  0.9776E+01
   2.687  0.6638E+00  0.9783E+01
   2.697  0.6251E+00  0.9789E+01
   2.707  0.5920E+00  0.9795E+01
   2.717  0.5678E+00  0.9801E+01
   2.727  0.5548E+00  0.9806E+01
   2.737  0.5537E+00  0.9812E+01
   2.747  0.5643E+00  0.9817E+01
   2.757  0.5845E+00  0.9823E+01
   2.767  0.6118E+00  0.9829E+01
   2.777  0.6429E+00  0.9836E+01
   2.787  0.6752E+00  0.9843E+01
   2.797  0.7064E+00  0.9850E+01
   2.807  0.7355E+00  0.9857E+01
   2.817  0.7629E+00  0.9865E+01
   2.827  0.7901E+00  0.9873E+01
   2.837  0.8197E+00  0.9881E+01
   2.847  0.8553E+00  0.9889E+01
   2.857  0.9007E+00  0.9898E+01
   2.867  0.9595E+00  0.9908E+01
   2.877  0.1034E+01  0.9918E+01
   2.887  0.1124E+01  0.9930E+01
   2.897  0.1228E+01  0.9942E+01
   2.907  0.1340E+01  0.9955E+01
   2.917  0.1453E+01  0.9970E+01
   2.927  0.1555E+01  0.9985E+01
   2.937  0.1639E+01  0.1000E+02
   2.947  0.1697E+01  0.1002E+02
   2.957  0.1723E+01  0.1004E+02
   2.967  0.1718E+01  0.1005E+02
   2.977  0.1683E+01  0.1007E+02
   2.987  0.1623E+01  0.1009E+02
   2.997  0.1546E+01  0.1010E+02
   3.007  0.1460E+01  0.1012E+02
   3.017  0.1371E+01  0.1013E+02
   3.027  0.1286E+01  0.1014E+02
   3.037  0.1208E+01  0.1015E+02
   3.047  0.1142E+01  0.1017E+02
   3.057  0.1088E+01  0.1018E+02
   3.067  0.1047E+01  0.1019E+02
   3.077  0.1019E+01  0.1020E+02
   3.087  0.1001E+01  0.1021E+02
   3.097  0.9913E+00  0.1022E+02
   3.107  0.9884E+00  0.1023E+02
   3.117  0.9896E+00  0.1024E+02
   3.127  0.9929E+00  0.1025E+02
   3.137  0.9967E+00  0.1026E+02
   3.147  0.9999E+00  0.1027E+02
   3.157  0.1002E+01  0.1028E+02
   3.167  0.1003E+01  0.1029E+02
   3.177  0.1002E+01  0.1030E+02
   3.187  0.1002E+01  0.1031E+02
   3.197  0.1002E+01  0.1032E+02
   3.207  0.1002E+01  0.1033E+02
   3.217  0.1003E+01  0.1034E+02
   3.227  0.1005E+01  0.1035E+02
   3.237  0.1005E+01  0.1036E+02
   3.247  0.1001E+01  0.1037E+02
   3.257  0.9926E+00  0.1038E+02
   3.267  0.9769E+00  0.1039E+02
   3.277  0.9535E+00  0.1040E+02
   3.287  0.9229E+00  0.1041E+02
   3.297  0.8866E+00  0.1041E+02
   3.307  0.8472E+00  0.1042E+02
   3.317  0.8080E+00  0.1043E+02
   3.327  0.7721E+00  0.1044E+02
   3.337  0.7427E+00  0.1045E+02
   3.347  0.7218E+00  0.1045E+02
   3.357  0.7105E+00  0.1046E+02
   3.367  0.7083E+00  0.1047E+02
   3.377  0.7138E+00  0.1048E+02
   3.387  0.7241E+00  0.1048E+02
   3.397  0.7360E+00  0.1049E+02
   3.407  0.7462E+00  0.1050E+02
   3.417  0.7520E+00  0.1050E+02
   3.427  0.7520E+00  0.1051E+02
   3.437  0.7466E+00  0.1052E+02
   3.447  0.7373E+00  0.1053E+02
   3.457  0.7267E+00  0.1053E+02
   3.467  0.7180E+00  0.1054E+02
   3.477  0.7137E+00  0.1055E+02
   3.487  0.7155E+00  0.1056E+02
   3.497  0.7233E+00  0.1056E+02
   3.507  0.7358E+00  0.1057E+02
   3.517  0.7503E+00  0.1058E+02
   3.527  0.7636E+00  0.1059E+02
   3.537  0.7727E+00  0.1059E+02
   3.547  0.7756E+00  0.1060E+02
   3.557  0.7717E+00  0.1061E+02
   3.567  0.7618E+00  0.1062E+02
   3.577  0.7482E+00  0.1062E+02
   3.587  0.7341E+00  0.1063E+02
   3.597  0.7223E+00  0.1064E+02
   3.607  0.7152E+00  0.1065E+02
   3.617  0.7140E+00  0.1065E+02
   3.627  0.7184E+00  0.1066E+02
   3.637  0.7274E+00  0.1067E+02
   3.647  0.7389E+00  0.1067E+02
   3.657  0.7508E+00  0.1068E+02
   3.667  0.7610E+00  0.1069E+02
   3.677  0.7677E+00  0.1070E+02
   3.687  0.7692E+00  0.1071E+02
   3.697  0.7641E+00  0.1071E+02
   3.707  0.7511E+00  0.1072E+02
   3.717  0.7292E+00  0.1073E+02
   3.727  0.6980E+00  0.1073E+02
   3.737  0.6579E+00  0.1074E+02
   3.747  0.6107E+00  0.1075E+02
   3.757  0.5594E+00  0.1075E+02
   3.767  0.5083E+00  0.1076E+02
   3.777  0.4628E+00  0.1076E+02
   3.787  0.4286E+00  0.1077E+02
   3.797  0.4111E+00  0.1077E+02
   3.807  0.4144E+00  0.1078E+02
   3.817  0.4407E+00  0.1078E+02
   3.827  0.4896E+00  0.1078E+02
   3.837  0.5572E+00  0.1079E+02
   3.847  0.6371E+00  0.1080E+02
   3.857  0.7204E+00  0.1080E+02
   3.867  0.7968E+00  0.1081E+02
   3.877  0.8565E+00  0.1082E+02
   3.887  0.8919E+00  0.1083E+02
   3.897  0.8983E+00  0.1084E+02
   3.907  0.8754E+00  0.1085E+02
   3.917  0.8271E+00  0.1085E+02
   3.927  0.7607E+00  0.1086E+02
   3.937  0.6861E+00  0.1087E+02
   3.947  0.6132E+00  0.1088E+02
   3.957  0.5514E+00  0.1088E+02
   3.967  0.5070E+00  0.1089E+02
   3.977  0.4834E+00  0.1089E+02
   3.987  0.4802E+00  0.1090E+02
   3.997  0.4940E+00  0.1090E+02
   4.007  0.5192E+00  0.1091E+02
   4.017  0.5491E+00  0.1091E+02
   4.027  0.5775E+00  0.1092E+02
   4.037  0.5999E+00  0.1092E+02
   4.047  0.6136E+00  0.1093E+02
   4.057  0.6186E+00  0.1094E+02
   4.067  0.6166E+00  0.1094E+02
   4.077  0.6101E+00  0.1095E+02
   4.087  0.6023E+00  0.1095E+02
   4.097  0.5954E+00  0.1096E+02
   4.107  0.5909E+00  0.1097E+02
   4.117  0.5893E+00  0.1097E+02
   4.127  0.5906E+00  0.1098E+02
   4.137  0.5946E+00  0.1098E+02
   4.147  0.6009E+00  0.1099E+02
   4.157  0.6092E+00  0.1100E+02
   4.167  0.6188E+00  0.1100E+02
   4.177  0.6282E+00  0.1101E+02
   4.187  0.6354E+00  0.1101E+02
   4.197  0.6373E+00  0.1102E+02
   4.207  0.6311E+00  0.1103E+02
   4.217  0.6146E+00  0.1103E+02
   4.227  0.5873E+00  0.1104E+02
   4.237  0.5507E+00  0.1104E+02
   4.247  0.5088E+00  0.1105E+02
   4.257  0.4670E+00  0.1105E+02
   4.267  0.4314E+00  0.1106E+02
   4.277  0.4081E+00  0.1106E+02
   4.287  0.4015E+00  0.1107E+02
   4.297  0.4137E+00  0.1107E+02
   4.307  0.4446E+00  0.1108E+02
   4.317  0.4914E+00  0.1108E+02
   4.327  0.5493E+00  0.1109E+02
   4.337  0.6121E+00  0.1109E+02
   4.347  0.6734E+00  0.1110E+02
   4.357  0.7265E+00  0.1111E+02
   4.367  0.7659E+00  0.1111E+02
   4.377  0.7873E+00  0.1112E+02
   4.387  0.7880E+00  0.1113E+02
   4.397  0.7673E+00  0.1114E+02
   4.407  0.7267E+00  0.1114E+02
   4.417  0.6698E+00  0.1115E+02
   4.427  0.6018E+00  0.1116E+02
   4.437  0.5294E+00  0.1116E+02
   4.447  0.4597E+00  0.1117E+02
   4.457  0.3998E+00  0.1117E+02
   4.467  0.3556E+00  0.1117E+02
   4.477  0.3313E+00  0.1118E+02
   4.487  0.3292E+00  0.1118E+02
   4.497  0.3487E+00  0.1118E+02
   4.507  0.3873E+00  0.1119E+02
   4.517  0.4403E+00  0.1119E+02
   4.527  0.5016E+00  0.1120E+02
   4.537  0.5640E+00  0.1120E+02
   4.547  0.6208E+00  0.1121E+02
   4.557  0.6659E+00  0.1122E+02
   4.567  0.6947E+00  0.1122E+02
   4.577  0.7048E+00  0.1123E+02
   4.587  0.6962E+00  0.1124E+02
   4.597  0.6712E+00  0.1124E+02
   4.607  0.6336E+00  0.1125E+02
   4.617  0.5887E+00  0.1126E+02
   4.627  0.5419E+00  0.1126E+02
   4.637  0.4984E+00  0.1127E+02
   4.647  0.4627E+00  0.1127E+02
   4.657  0.4377E+00  0.1128E+02
   4.667  0.4254E+00  0.1128E+02
   4.677  0.4268E+00  0.1128E+02
   4.687  0.4425E+00  0.1129E+02
   4.697  0.4728E+00  0.1129E+02
   4.707  0.5185E+00  0.1130E+02
   4.717  0.5808E+00  0.1130E+02
   4.727  0.6610E+00  0.1131E+02
   4.737  0.7599E+00  0.1132E+02
   4.747  0.8772E+00  0.1133E+02
   4.757  0.1011E+01  0.1134E+02
   4.767  0.1155E+01  0.1135E+02
   4.777  0.1303E+01  0.1136E+02
   4.787  0.1445E+01  0.1138E+02
   4.797  0.1570E+01  0.1139E+02
   4.807  0.1667E+01  0.1141E+02
   4.817  0.1729E+01  0.1143E+02
   4.827  0.1751E+01  0.1144E+02
   4.837  0.1733E+01  0.1146E+02
   4.847  0.1680E+01  0.1148E+02
   4.857  0.1600E+01  0.1149E+02
   4.867  0.1501E+01  0.1151E+02
   4.877  0.1395E+01  0.1152E+02
   4.887  0.1290E+01  0.1154E+02
   4.897  0.1192E+01  0.1155E+02
   4.907  0.1105E+01  0.1156E+02
   4.917  0.1031E+01  0.1157E+02
   4.927  0.9703E+00  0.1158E+02
   4.937  0.9205E+00  0.1159E+02
   4.947  0.8808E+00  0.1160E+02
   4.957  0.8496E+00  0.1160E+02
   4.967  0.8263E+00  0.1161E+02
   4.977  0.8107E+00  0.1162E+02
   4.987  0.8034E+00  0.1163E+02
   4.997  0.8047E+00  0.1164E+02
   5.007  0.8151E+00  0.1165E+02
   5.017  0.8341E+00  0.1165E+02
   5.027  0.8603E+00  0.1166E+02
   5.037  0.8911E+00  0.1167E+02
   5.047  0.9231E+00  0.1168E+02
   5.057  0.9528E+00  0.1169E+02
   5.067  0.9765E+00  0.1170E+02
   5.077  0.9911E+00  0.1171E+02
   5.087  0.9946E+00  0.1172E+02
   5.097  0.9858E+00  0.1173E+02
   5.107  0.9651E+00  0.1174E+02
   5.117  0.9336E+00  0.1175E+02
   5.127  0.8937E+00  0.1176E+02
   5.137  0.8485E+00  0.1177E+02
   5.147  0.8015E+00  0.1177E+02
   5.157  0.7563E+00  0.1178E+02
   5.167  0.7158E+00  0.1179E+02
   5.177  0.6822E+00  0.1180E+02
   5.187  0.6566E+00  0.1180E+02
   5.197  0.6396E+00  0.1181E+02
   5.207  0.6314E+00  0.1181E+02
   5.217  0.6325E+00  0.1182E+02
   5.227  0.6439E+00  0.1183E+02
   5.237  0.6669E+00  0.1183E+02
   5.247  0.7029E+00  0.1184E+02
   5.257  0.7522E+00  0.1185E+02
   5.267  0.8137E+00  0.1186E+02
   5.277  0.8839E+00  0.1187E+02
   5.287  0.9571E+00  0.1188E+02
   5.297  0.1026E+01  0.1189E+02
   5.307  0.1083E+01  0.1190E+02
   5.317  0.1120E+01  0.1191E+02
   5.327  0.1132E+01  0.1192E+02
   5.337  0.1117E+01  0.1193E+02
   5.347  0.1075E+01  0.1194E+02
   5.357  0.1010E+01  0.1195E+02
   5.367  0.9290E+00  0.1196E+02
   5.377  0.8386E+00  0.1197E+02
   5.387  0.7466E+00  0.1198E+02
   5.397  0.6599E+00  0.1198E+02
   5.407  0.5842E+00  0.1199E+02
   5.417  0.5233E+00  0.1199E+02
   5.427  0.4797E+00  0.1200E+02
   5.437  0.4543E+00  0.1200E+02
   5.447  0.4469E+00  0.1201E+02
   5.457  0.4565E+00  0.1201E+02
   5.467  0.4815E+00  0.1202E+02
   5.477  0.5200E+00  0.1202E+02
   5.487  0.5702E+00  0.1203E+02
   5.497  0.6305E+00  0.1203E+02
   5.507  0.6993E+00  0.1204E+02
   5.517  0.7757E+00  0.1205E+02
   5.527  0.8589E+00  0.1206E+02
   5.537  0.9481E+00  0.1207E+02
   5.547  0.1043E+01  0.1208E+02
   5.557  0.1142E+01  0.1209E+02
   5.567  0.1243E+01  0.1210E+02
   5.577  0.1344E+01  0.1211E+02
   5.587  0.1442E+01  0.1213E+02
   5.597  0.1532E+01  0.1214E+02
   5.607  0.1610E+01  0.1216E+02
   5.617  0.1671E+01  0.1218E+02
   5.627  0.1711E+01  0.1219E+02
   5.637  0.1728E+01  0.1221E+02
   5.647  0.1722E+01  0.1223E+02
   5.657  0.1695E+01  0.1225E+02
   5.667  0.1651E+01  0.1226E+02
   5.677  0.1595E+01  0.1228E+02
   5.687  0.1534E+01  0.1229E+02
   5.697  0.1474E+01  0.1231E+02
   5.707  0.1420E+01  0.1232E+02
   5.717  0.1374E+01  0.1234E+02
   5.727  0.1339E+01  0.1235E+02
   5.737  0.1312E+01  0.1236E+02
   5.747  0.1291E+01  0.1238E+02
   5.757  0.1273E+01  0.1239E+02
   5.767  0.1257E+01  0.1240E+02
   5.777  0.1241E+01  0.1241E+02
   5.787  0.1226E+01  0.1243E+02
   5.797  0.1213E+01  0.1244E+02
   5.807  0.1206E+01  0.1245E+02
   5.817  0.1208E+01  0.1246E+02
   5.827  0.1220E+01  0.1247E+02
   5.837  0.1241E+01  0.1249E+02
   5.847  0.1269E+01  0.1250E+02
   5.857  0.1299E+01  0.1251E+02
   5.867  0.1323E+01  0.1253E+02
   5.877  0.1337E+01  0.1254E+02
   5.887  0.1335E+01  0.1255E+02
   5.897  0.1315E+01  0.1257E+02
   5.907  0.1279E+01  0.1258E+02
   5.917  0.1232E+01  0.1259E+02
   5.927  0.1182E+01  0.1260E+02
   5.937  0.1139E+01  0.1261E+02
   5.947  0.1115E+01  0.1262E+02
   5.957  0.1120E+01  0.1264E+02
   5.967  0.1162E+01  0.1265E+02
   5.977  0.1245E+01  0.1266E+02
   5.987  0.1368E+01  0.1267E+02
   5.997  0.1526E+01  0.1269E+02
   6.007  0.1706E+01  0.1271E+02
   6.017  0.1895E+01  0.1273E+02
   6.027  0.2075E+01  0.1275E+02
   6.037  0.2232E+01  0.1277E+02
   6.047  0.2353E+01  0.1279E+02
   6.057  0.2429E+01  0.1282E+02
   6.067  0.2459E+01  0.1284E+02
   6.077  0.2444E+01  0.1287E+02
   6.087  0.2389E+01  0.1289E+02
   6.097  0.2303E+01  0.1291E+02
   6.107  0.2194E+01  0.1293E+02
   6.117  0.2071E+01  0.1295E+02
   6.127  0.1941E+01  0.1297E+02
   6.137  0.1812E+01  0.1299E+02
   6.147  0.1690E+01  0.1301E+02
   6.157  0.1580E+01  0.1302E+02
   6.167  0.1487E+01  0.1304E+02
   6.177  0.1415E+01  0.1305E+02
   6.187  0.1366E+01  0.1307E+02
   6.197  0.1342E+01  0.1308E+02
   6.207  0.1342E+01  0.1309E+02
   6.217  0.1365E+01  0.1311E+02
   6.227  0.1407E+01  0.1312E+02
   6.237  0.1463E+01  0.1314E+02
   6.247  0.1528E+01  0.1315E+02
   6.257  0.1595E+01  0.1317E+02
   6.267  0.1656E+01  0.1318E+02
   6.277  0.1705E+01  0.1320E+02
   6.287  0.1736E+01  0.1322E+02
   6.297  0.1745E+01  0.1324E+02
   6.307  0.1729E+01  0.1325E+02
   6.317  0.1689E+01  0.1327E+02
   6.327  0.1627E+01  0.1329E+02
   6.337  0.1548E+01  0.1330E+02
   6.347  0.1458E+01  0.1332E+02
   6.357  0.1365E+01  0.1333E+02
   6.367  0.1277E+01  0.1334E+02
   6.377  0.1199E+01  0.1336E+02
   6.387  0.1137E+01  0.1337E+02
   6.397  0.1093E+01  0.1338E+02
   6.407  0.1067E+01  0.1339E+02
   6.417  0.1058E+01  0.1340E+02
   6.427  0.1063E+01  0.1341E+02
   6.437  0.1077E+01  0.1342E+02
   6.447  0.1096E+01  0.1343E+02
   6.457  0.1117E+01  0.1344E+02
   6.467  0.1138E+01  0.1345E+02
   6.477  0.1157E+01  0.1347E+02
   6.487  0.1176E+01  0.1348E+02
   6.497  0.1197E+01  0.1349E+02
   6.507  0.1221E+01  0.1350E+02
   6.517  0.1252E+01  0.1351E+02
   6.527  0.1289E+01  0.1353E+02
   6.537  0.1331E+01  0.1354E+02
   6.547  0.1377E+01  0.1355E+02
   6.557  0.1423E+01  0.1357E+02
   6.567  0.1463E+01  0.1358E+02
   6.577  0.1494E+01  0.1360E+02
   6.587  0.1513E+01  0.1361E+02
   6.597  0.1518E+01  0.1363E+02
   6.607  0.1509E+01  0.1364E+02
   6.617  0.1489E+01  0.1366E+02
   6.627  0.1461E+01  0.1367E+02
   6.637  0.1430E+01  0.1369E+02
   6.647  0.1401E+01  0.1370E+02
   6.657  0.1378E+01  0.1371E+02
   6.667  0.1366E+01  0.1373E+02
   6.677  0.1366E+01  0.1374E+02
   6.687  0.1376E+01  0.1376E+02
   6.697  0.1393E+01  0.1377E+02
   6.707  0.1413E+01  0.1378E+02
   6.717  0.1428E+01  0.1380E+02
   6.727  0.1432E+01  0.1381E+02
   6.737  0.1422E+01  0.1383E+02
   6.747  0.1395E+01  0.1384E+02
   6.757  0.1352E+01  0.1385E+02
   6.767  0.1297E+01  0.1387E+02
   6.777  0.1237E+01  0.1388E+02
   6.787  0.1179E+01  0.1389E+02
   6.797  0.1133E+01  0.1390E+02
   6.807  0.1105E+01  0.1391E+02
   6.817  0.1103E+01  0.1392E+02
   6.827  0.1133E+01  0.1394E+02
   6.837  0.1196E+01  0.1395E+02
   6.847  0.1296E+01  0.1396E+02
   6.857  0.1432E+01  0.1398E+02
   6.867  0.1603E+01  0.1399E+02
   6.877  0.1805E+01  0.1401E+02
   6.887  0.2034E+01  0.1403E+02
   6.897  0.2281E+01  0.1405E+02
   6.907  0.2539E+01  0.1408E+02
   6.917  0.2796E+01  0.1411E+02
   6.927  0.3042E+01  0.1414E+02
   6.937  0.3267E+01  0.1417E+02
   6.947  0.3460E+01  0.1420E+02
   6.957  0.3614E+01  0.1424E+02
   6.967  0.3719E+01  0.1428E+02
   6.977  0.3771E+01  0.1431E+02
   6.987  0.3764E+01  0.1435E+02
   6.997  0.3698E+01  0.1439E+02
   7.007  0.3576E+01  0.1442E+02
   7.017  0.3405E+01  0.1446E+02
   7.027  0.3195E+01  0.1449E+02
   7.037  0.2963E+01  0.1452E+02
   7.047  0.2723E+01  0.1455E+02
   7.057  0.2491E+01  0.1457E+02
   7.067  0.2282E+01  0.1460E+02
   7.077  0.2103E+01  0.1462E+02
   7.087  0.1960E+01  0.1464E+02
   7.097  0.1852E+01  0.1465E+02
   7.107  0.1774E+01  0.1467E+02
   7.117  0.1719E+01  0.1469E+02
   7.127  0.1676E+01  0.1471E+02
   7.137  0.1638E+01  0.1472E+02
   7.147  0.1595E+01  0.1474E+02
   7.157  0.1542E+01  0.1475E+02
   7.167  0.1477E+01  0.1477E+02
   7.177  0.1400E+01  0.1478E+02
   7.187  0.1316E+01  0.1480E+02
   7.197  0.1229E+01  0.1481E+02
   7.207  0.1147E+01  0.1482E+02
   7.217  0.1076E+01  0.1483E+02
   7.227  0.1020E+01  0.1484E+02
   7.237  0.9818E+00  0.1485E+02
   7.247  0.9625E+00  0.1486E+02
   7.257  0.9609E+00  0.1487E+02
   7.267  0.9748E+00  0.1488E+02
   7.277  0.1002E+01  0.1489E+02
   7.287  0.1039E+01  0.1490E+02
   7.297  0.1084E+01  0.1491E+02
   7.307  0.1134E+01  0.1492E+02
   7.317  0.1187E+01  0.1493E+02
   7.327  0.1241E+01  0.1495E+02
   7.337  0.1291E+01  0.1496E+02
   7.347  0.1337E+01  0.1497E+02
   7.357  0.1374E+01  0.1499E+02
   7.367  0.1402E+01  0.1500E+02
   7.377  0.1419E+01  0.1501E+02
   7.387  0.1427E+01  0.1503E+02
   7.397  0.1427E+01  0.1504E+02
   7.407  0.1420E+01  0.1506E+02
   7.417  0.1408E+01  0.1507E+02
   7.427  0.1391E+01  0.1509E+02
   7.437  0.1369E+01  0.1510E+02
   7.447  0.1340E+01  0.1511E+02
   7.457  0.1301E+01  0.1513E+02
   7.467  0.1250E+01  0.1514E+02
   7.477  0.1187E+01  0.1515E+02
   7.487  0.1112E+01  0.1516E+02
   7.497  0.1029E+01  0.1517E+02
   7.507  0.9423E+00  0.1518E+02
   7.517  0.8595E+00  0.1519E+02
   7.527  0.7873E+00  0.1520E+02
   7.537  0.7321E+00  0.1520E+02
   7.547  0.6987E+00  0.1521E+02
   7.557  0.6898E+00  0.1522E+02
   7.567  0.7058E+00  0.1523E+02
   7.577  0.7447E+00  0.1523E+02
   7.587  0.8027E+00  0.1524E+02
   7.597  0.8747E+00  0.1525E+02
   7.607  0.9547E+00  0.1526E+02
   7.617  0.1037E+01  0.1527E+02
   7.627  0.1115E+01  0.1528E+02
   7.637  0.1184E+01  0.1529E+02
   7.647  0.1240E+01  0.1530E+02
   7.657  0.1280E+01  0.1532E+02
   7.667  0.1303E+01  0.1533E+02
   7.677  0.1306E+01  0.1534E+02
   7.687  0.1292E+01  0.1536E+02
   7.697  0.1263E+01  0.1537E+02
   7.707  0.1222E+01  0.1538E+02
   7.717  0.1175E+01  0.1539E+02
   7.727  0.1128E+01  0.1540E+02
   7.737  0.1086E+01  0.1542E+02
   7.747  0.1054E+01  0.1543E+02
   7.757  0.1033E+01  0.1544E+02
   7.767  0.1025E+01  0.1545E+02
   7.777  0.1027E+01  0.1546E+02
   7.787  0.1035E+01  0.1547E+02
   7.797  0.1045E+01  0.1548E+02
   7.807  0.1052E+01  0.1549E+02
   7.817  0.1055E+01  0.1550E+02
   7.827  0.1050E+01  0.1551E+02
   7.837  0.1040E+01  0.1552E+02
   7.847  0.1025E+01  0.1553E+02
   7.857  0.1010E+01  0.1554E+02
   7.867  0.9958E+00  0.1555E+02
   7.877  0.9838E+00  0.1556E+02
   7.887  0.9740E+00  0.1557E+02
   7.897  0.9649E+00  0.1558E+02
   7.907  0.9546E+00  0.1559E+02
   7.917  0.9413E+00  0.1560E+02
   7.927  0.9240E+00  0.1561E+02
   7.937  0.9027E+00  0.1562E+02
   7.947  0.8786E+00  0.1563E+02
   7.957  0.8536E+00  0.1563E+02
   7.967  0.8299E+00  0.1564E+02
   7.977  0.8096E+00  0.1565E+02
   7.987  0.7946E+00  0.1566E+02
   7.997  0.7864E+00  0.1567E+02
   8.007  0.7868E+00  0.1567E+02
   8.017  0.7974E+00  0.1568E+02
   8.027  0.8202E+00  0.1569E+02
   8.037  0.8565E+00  0.1570E+02
   8.047  0.9070E+00  0.1571E+02
   8.057  0.9704E+00  0.1572E+02
   8.067  0.1043E+01  0.1573E+02
   8.077  0.1120E+01  0.1574E+02
   8.087  0.1193E+01  0.1575E+02
   8.097  0.1256E+01  0.1576E+02
   8.107  0.1300E+01  0.1578E+02
   8.117  0.1321E+01  0.1579E+02
   8.127  0.1317E+01  0.1580E+02
   8.137  0.1290E+01  0.1582E+02
   8.147  0.1244E+01  0.1583E+02
   8.157  0.1184E+01  0.1584E+02
   8.167  0.1117E+01  0.1585E+02
   8.177  0.1049E+01  0.1586E+02
   8.187  0.9852E+00  0.1587E+02
   8.197  0.9286E+00  0.1588E+02
   8.207  0.8819E+00  0.1589E+02
   8.217  0.8462E+00  0.1590E+02
   8.227  0.8218E+00  0.1591E+02
   8.237  0.8078E+00  0.1591E+02
   8.247  0.8024E+00  0.1592E+02
   8.257  0.8031E+00  0.1593E+02
   8.267  0.8071E+00  0.1594E+02
   8.277  0.8112E+00  0.1595E+02
   8.287  0.8124E+00  0.1595E+02
   8.297  0.8088E+00  0.1596E+02
   8.307  0.7996E+00  0.1597E+02
   8.317  0.7855E+00  0.1598E+02
   8.327  0.7690E+00  0.1599E+02
   8.337  0.7538E+00  0.1599E+02
   8.347  0.7442E+00  0.1600E+02
   8.357  0.7446E+00  0.1601E+02
   8.367  0.7586E+00  0.1602E+02
   8.377  0.7884E+00  0.1602E+02
   8.387  0.8340E+00  0.1603E+02
   8.397  0.8937E+00  0.1604E+02
   8.407  0.9637E+00  0.1605E+02
   8.417  0.1039E+01  0.1606E+02
   8.427  0.1113E+01  0.1607E+02
   8.437  0.1180E+01  0.1608E+02
   8.447  0.1235E+01  0.1610E+02
   8.457  0.1273E+01  0.1611E+02
   8.467  0.1291E+01  0.1612E+02
   8.477  0.1287E+01  0.1614E+02
   8.487  0.1260E+01  0.1615E+02
   8.497  0.1213E+01  0.1616E+02
   8.507  0.1149E+01  0.1617E+02
   8.517  0.1071E+01  0.1618E+02
   8.527  0.9853E+00  0.1619E+02
   8.537  0.8994E+00  0.1620E+02
   8.547  0.8199E+00  0.1621E+02
   8.557  0.7531E+00  0.1622E+02
   8.567  0.7043E+00  0.1622E+02
   8.577  0.6763E+00  0.1623E+02
   8.587  0.6699E+00  0.1624E+02
   8.597  0.6838E+00  0.1624E+02
   8.607  0.7150E+00  0.1625E+02
   8.617  0.7600E+00  0.1626E+02
   8.627  0.8152E+00  0.1627E+02
   8.637  0.8782E+00  0.1628E+02
   8.647  0.9475E+00  0.1629E+02
   8.657  0.1023E+01  0.1630E+02
   8.667  0.1106E+01  0.1631E+02
   8.677  0.1198E+01  0.1632E+02
   8.687  0.1298E+01  0.1633E+02
   8.697  0.1406E+01  0.1635E+02
   8.707  0.1518E+01  0.1636E+02
   8.717  0.1630E+01  0.1638E+02
   8.727  0.1734E+01  0.1639E+02
   8.737  0.1823E+01  0.1641E+02
   8.747  0.1889E+01  0.1643E+02
   8.757  0.1926E+01  0.1645E+02
   8.767  0.1933E+01  0.1647E+02
   8.777  0.1911E+01  0.1649E+02
   8.787  0.1866E+01  0.1651E+02
   8.797  0.1806E+01  0.1653E+02
   8.807  0.1741E+01  0.1654E+02
   8.817  0.1680E+01  0.1656E+02
   8.827  0.1632E+01  0.1658E+02
   8.837  0.1600E+01  0.1659E+02
   8.847  0.1588E+01  0.1661E+02
   8.857  0.1596E+01  0.1662E+02
   8.867  0.1620E+01  0.1664E+02
   8.877  0.1658E+01  0.1666E+02
   8.887  0.1704E+01  0.1667E+02
   8.897  0.1753E+01  0.1669E+02
   8.907  0.1801E+01  0.1671E+02
   8.917  0.1841E+01  0.1673E+02
   8.927  0.1870E+01  0.1675E+02
   8.937  0.1884E+01  0.1677E+02
   8.947  0.1881E+01  0.1678E+02
   8.957  0.1860E+01  0.1680E+02
   8.967  0.1826E+01  0.1682E+02
   8.977  0.1784E+01  0.1684E+02
   8.987  0.1742E+01  0.1686E+02
   8.997  0.1709E+01  0.1687E+02
   9.007  0.1694E+01  0.1689E+02
   9.017  0.1703E+01  0.1691E+02
   9.027  0.1737E+01  0.1692E+02
   9.037  0.1795E+01  0.1694E+02
   9.047  0.1871E+01  0.1696E+02
   9.057  0.1959E+01  0.1698E+02
   9.067  0.2049E+01  0.1700E+02
   9.077  0.2136E+01  0.1702E+02
   9.087  0.2215E+01  0.1705E+02
   9.097  0.2283E+01  0.1707E+02
   9.107  0.2341E+01  0.1709E+02
   9.117  0.2388E+01  0.1712E+02
   9.127  0.2424E+01  0.1714E+02
   9.137  0.2448E+01  0.1716E+02
   9.147  0.2459E+01  0.1719E+02
   9.157  0.2451E+01  0.1721E+02
   9.167  0.2424E+01  0.1724E+02
   9.177  0.2376E+01  0.1726E+02
   9.187  0.2306E+01  0.1728E+02
   9.197  0.2218E+01  0.1731E+02
   9.207  0.2115E+01  0.1733E+02
   9.217  0.2006E+01  0.1735E+02
   9.227  0.1895E+01  0.1737E+02
   9.237  0.1791E+01  0.1738E+02
   9.247  0.1697E+01  0.1740E+02
   9.257  0.1618E+01  0.1742E+02
   9.267  0.1556E+01  0.1743E+02
   9.277  0.1513E+01  0.1745E+02
   9.287  0.1490E+01  0.1746E+02
   9.297  0.1484E+01  0.1748E+02
   9.307  0.1495E+01  0.1749E+02
   9.317  0.1520E+01  0.1751E+02
   9.327  0.1553E+01  0.1752E+02
   9.337  0.1589E+01  0.1754E+02
   9.347  0.1621E+01  0.1756E+02
   9.357  0.1644E+01  0.1757E+02
   9.367  0.1652E+01  0.1759E+02
   9.377  0.1644E+01  0.1761E+02
   9.387  0.1620E+01  0.1762E+02
   9.397  0.1583E+01  0.1764E+02
   9.407  0.1538E+01  0.1765E+02
   9.417  0.1489E+01  0.1767E+02
   9.427  0.1443E+01  0.1768E+02
   9.437  0.1401E+01  0.1770E+02
   9.447  0.1367E+01  0.1771E+02
   9.457  0.1344E+01  0.1772E+02
   9.467  0.1333E+01  0.1774E+02
   9.477  0.1336E+01  0.1775E+02
   9.487  0.1357E+01  0.1776E+02
   9.497  0.1398E+01  0.1778E+02
   9.507  0.1459E+01  0.1779E+02
   9.517  0.1540E+01  0.1781E+02
   9.527  0.1637E+01  0.1782E+02
   9.537  0.1744E+01  0.1784E+02
   9.547  0.1853E+01  0.1786E+02
   9.557  0.1956E+01  0.1788E+02
   9.567  0.2045E+01  0.1790E+02
   9.577  0.2117E+01  0.1792E+02
   9.587  0.2171E+01  0.1794E+02
   9.597  0.2210E+01  0.1796E+02
   9.607  0.2240E+01  0.1799E+02
   9.617  0.2270E+01  0.1801E+02
   9.627  0.2307E+01  0.1803E+02
   9.637  0.2357E+01  0.1806E+02
   9.647  0.2425E+01  0.1808E+02
   9.657  0.2511E+01  0.1811E+02
   9.667  0.2611E+01  0.1813E+02
   9.677  0.2718E+01  0.1816E+02
   9.687  0.2825E+01  0.1819E+02
   9.697  0.2922E+01  0.1822E+02
   9.707  0.3001E+01  0.1825E+02
   9.717  0.3059E+01  0.1828E+02
   9.727  0.3091E+01  0.1831E+02
   9.737  0.3101E+01  0.1834E+02
   9.747  0.3092E+01  0.1837E+02
   9.757  0.3072E+01  0.1840E+02
   9.767  0.3050E+01  0.1843E+02
   9.777  0.3033E+01  0.1846E+02
   9.787  0.3027E+01  0.1849E+02
   9.797  0.3035E+01  0.1852E+02
   9.807  0.3057E+01  0.1855E+02
   9.817  0.3088E+01  0.1858E+02
   9.827  0.3122E+01  0.1861E+02
   9.837  0.3152E+01  0.1865E+02
   9.847  0.3171E+01  0.1868E+02
   9.857  0.3174E+01  0.1871E+02
   9.867  0.3160E+01  0.1874E+02
   9.877  0.3131E+01  0.1877E+02
   9.887  0.3092E+01  0.1880E+02
   9.897  0.3047E+01  0.1883E+02
   9.907  0.3005E+01  0.1886E+02
   9.917  0.2969E+01  0.1889E+02
   9.927  0.2945E+01  0.1892E+02
   9.937  0.2932E+01  0.1895E+02
   9.947  0.2929E+01  0.1898E+02
   9.957  0.2934E+01  0.1901E+02
   9.967  0.2943E+01  0.1904E+02
   9.977  0.2952E+01  0.1907E+02
   9.987  0.2957E+01  0.1910E+02
   9.997  0.2958E+01  0.1913E+02
  10.007  0.2953E+01  0.1916E+02
  10.017  0.2943E+01  0.1919E+02
  10.027  0.2932E+01  0.1922E+02
  10.037  0.2920E+01  0.1925E+02
  10.047  0.2910E+01  0.1928E+02
  10.057  0.2905E+01  0.1930E+02
  10.067  0.2907E+01  0.1933E+02
  10.077  0.2915E+01  0.1936E+02
  10.087  0.2930E+01  0.1939E+02
  10.097  0.2950E+01  0.1942E+02
  10.107  0.2975E+01  0.1945E+02
  10.117  0.3001E+01  0.1948E+02
  10.127  0.3025E+01  0.1951E+02
  10.137  0.3042E+01  0.1954E+02
  10.147  0.3048E+01  0.1957E+02
  10.157  0.3038E+01  0.1960E+02
  10.167  0.3007E+01  0.1963E+02
  10.177  0.2953E+01  0.1966E+02
  10.187  0.2876E+01  0.1969E+02
  10.197  0.2779E+01  0.1972E+02
  10.207  0.2667E+01  0.1975E+02
  10.217  0.2550E+01  0.1977E+02
  10.227  0.2435E+01  0.1980E+02
  10.237  0.2329E+01  0.1982E+02
  10.247  0.2237E+01  0.1984E+02
  10.257  0.2162E+01  0.1986E+02
  10.267  0.2105E+01  0.1988E+02
  10.277  0.2065E+01  0.1990E+02
  10.287  0.2043E+01  0.1993E+02
  10.297  0.2037E+01  0.1995E+02
  10.307  0.2048E+01  0.1997E+02
  10.317  0.2077E+01  0.1999E+02
  10.327  0.2126E+01  0.2001E+02
  10.337  0.2193E+01  0.2003E+02
  10.347  0.2277E+01  0.2005E+02
  10.357  0.2378E+01  0.2008E+02
  10.367  0.2494E+01  0.2010E+02
  10.377  0.2624E+01  0.2013E+02
  10.387  0.2766E+01  0.2016E+02
  10.397  0.2918E+01  0.2018E+02
  10.407  0.3076E+01  0.2022E+02
  10.417  0.3234E+01  0.2025E+02
  10.427  0.3382E+01  0.2028E+02
  10.437  0.3508E+01  0.2032E+02
  10.447  0.3596E+01  0.2035E+02
  10.457  0.3635E+01  0.2039E+02
  10.467  0.3615E+01  0.2043E+02
  10.477  0.3531E+01  0.2046E+02
  10.487  0.3388E+01  0.2049E+02
  10.497  0.3195E+01  0.2053E+02
  10.507  0.2969E+01  0.2056E+02
  10.517  0.2727E+01  0.2058E+02
  10.527  0.2487E+01  0.2061E+02
  10.537  0.2264E+01  0.2063E+02
  10.547  0.2070E+01  0.2065E+02
  10.557  0.1913E+01  0.2067E+02
  10.567  0.1795E+01  0.2069E+02
  10.577  0.1718E+01  0.2071E+02
  10.587  0.1679E+01  0.2072E+02
  10.597  0.1676E+01  0.2074E+02
  10.607  0.1705E+01  0.2076E+02
  10.617  0.1762E+01  0.2077E+02
  10.627  0.1843E+01  0.2079E+02
  10.637  0.1942E+01  0.2081E+02
  10.647  0.2054E+01  0.2083E+02
  10.657  0.2170E+01  0.2085E+02
  10.667  0.2285E+01  0.2088E+02
  10.677  0.2388E+01  0.2090E+02
  10.687  0.2474E+01  0.2093E+02
  10.697  0.2535E+01  0.2095E+02
  10.707  0.2570E+01  0.2098E+02
  10.717  0.2579E+01  0.2100E+02
  10.727  0.2565E+01  0.2103E+02
  10.737  0.2535E+01  0.2105E+02
  10.747  0.2494E+01  0.2108E+02
  10.757  0.2450E+01  0.2110E+02
  10.767  0.2409E+01  0.2113E+02
  10.777  0.2372E+01  0.2115E+02
  10.787  0.2339E+01  0.2117E+02
  10.797  0.2307E+01  0.2120E+02
  10.807  0.2273E+01  0.2122E+02
  10.817  0.2234E+01  0.2124E+02
  10.827  0.2187E+01  0.2126E+02
  10.837  0.2132E+01  0.2129E+02
  10.847  0.2074E+01  0.2131E+02
  10.857  0.2018E+01  0.2133E+02
  10.867  0.1972E+01  0.2135E+02
  10.877  0.1944E+01  0.2137E+02
  10.887  0.1937E+01  0.2138E+02
  10.897  0.1956E+01  0.2140E+02
  10.907  0.1997E+01  0.2142E+02
  10.917  0.2055E+01  0.2144E+02
  10.927  0.2120E+01  0.2147E+02
  10.937  0.2181E+01  0.2149E+02
  10.947  0.2226E+01  0.2151E+02
  10.957  0.2247E+01  0.2153E+02
  10.967  0.2238E+01  0.2155E+02
  10.977  0.2200E+01  0.2158E+02
  10.987  0.2137E+01  0.2160E+02
  10.997  0.2055E+01  0.2162E+02
  11.007  0.1965E+01  0.2164E+02
  11.017  0.1875E+01  0.2166E+02
  11.027  0.1795E+01  0.2168E+02
  11.037  0.1730E+01  0.2169E+02
  11.047  0.1685E+01  0.2171E+02
  11.057  0.1662E+01  0.2173E+02
  11.067  0.1662E+01  0.2174E+02
  11.077  0.1683E+01  0.2176E+02
  11.087  0.1722E+01  0.2178E+02
  11.097  0.1775E+01  0.2179E+02
  11.107  0.1837E+01  0.2181E+02
  11.117  0.1903E+01  0.2183E+02
  11.127  0.1969E+01  0.2185E+02
  11.137  0.2032E+01  0.2187E+02
  11.147  0.2094E+01  0.2189E+02
  11.157  0.2158E+01  0.2191E+02
  11.167  0.2231E+01  0.2194E+02
  11.177  0.2321E+01  0.2196E+02
  11.187  0.2434E+01  0.2198E+02
  11.197  0.2575E+01  0.2201E+02
  11.207  0.2741E+01  0.2204E+02
  11.217  0.2927E+01  0.2207E+02
  11.227  0.3121E+01  0.2210E+02
  11.237  0.3309E+01  0.2213E+02
  11.247  0.3476E+01  0.2217E+02
  11.257  0.3610E+01  0.2220E+02
  11.267  0.3701E+01  0.2224E+02
  11.277  0.3747E+01  0.2228E+02
  11.287  0.3749E+01  0.2231E+02
  11.297  0.3714E+01  0.2235E+02
  11.307  0.3649E+01  0.2239E+02
  11.317  0.3565E+01  0.2242E+02
  11.327  0.3471E+01  0.2246E+02
  11.337  0.3378E+01  0.2249E+02
  11.347  0.3293E+01  0.2252E+02
  11.357  0.3224E+01  0.2256E+02
  11.367  0.3177E+01  0.2259E+02
  11.377  0.3157E+01  0.2262E+02
  11.387  0.3165E+01  0.2265E+02
  11.397  0.3201E+01  0.2268E+02
  11.407  0.3262E+01  0.2272E+02
  11.417  0.3343E+01  0.2275E+02
  11.427  0.3437E+01  0.2278E+02
  11.437  0.3534E+01  0.2282E+02
  11.447  0.3626E+01  0.2286E+02
  11.457  0.3704E+01  0.2289E+02
  11.467  0.3761E+01  0.2293E+02
  11.477  0.3793E+01  0.2297E+02
  11.487  0.3797E+01  0.2301E+02
  11.497  0.3777E+01  0.2304E+02
  11.507  0.3736E+01  0.2308E+02
  11.517  0.3682E+01  0.2312E+02
  11.527  0.3621E+01  0.2315E+02
  11.537  0.3559E+01  0.2319E+02
  11.547  0.3501E+01  0.2323E+02
  11.557  0.3447E+01  0.2326E+02
  11.567  0.3399E+01  0.2329E+02
  11.577  0.3353E+01  0.2333E+02
  11.587  0.3307E+01  0.2336E+02
  11.597  0.3258E+01  0.2339E+02
  11.607  0.3204E+01  0.2342E+02
  11.617  0.3142E+01  0.2346E+02
  11.627  0.3073E+01  0.2349E+02
  11.637  0.2996E+01  0.2352E+02
  11.647  0.2912E+01  0.2355E+02
  11.657  0.2821E+01  0.2357E+02
  11.667  0.2725E+01  0.2360E+02
  11.677  0.2624E+01  0.2363E+02
  11.687  0.2520E+01  0.2365E+02
  11.697  0.2414E+01  0.2368E+02
  11.707  0.2310E+01  0.2370E+02
  11.717  0.2210E+01  0.2372E+02
  11.727  0.2119E+01  0.2374E+02
  11.737  0.2040E+01  0.2376E+02
  11.747  0.1979E+01  0.2378E+02
  11.757  0.1935E+01  0.2380E+02
  11.767  0.1911E+01  0.2382E+02
  11.777  0.1904E+01  0.2384E+02
  11.787  0.1910E+01  0.2386E+02
  11.797  0.1926E+01  0.2388E+02
  11.807  0.1948E+01  0.2390E+02
  11.817  0.1974E+01  0.2392E+02
  11.827  0.2001E+01  0.2394E+02
  11.837  0.2029E+01  0.2396E+02
  11.847  0.2058E+01  0.2398E+02
  11.857  0.2090E+01  0.2400E+02
  11.867  0.2123E+01  0.2402E+02
  11.877  0.2157E+01  0.2404E+02
  11.887  0.2192E+01  0.2407E+02
  11.897  0.2226E+01  0.2409E+02
  11.907  0.2259E+01  0.2411E+02
  11.917  0.2294E+01  0.2413E+02
  11.927  0.2331E+01  0.2416E+02
  11.937  0.2371E+01  0.2418E+02
  11.947  0.2415E+01  0.2420E+02
  11.957  0.2462E+01  0.2423E+02
  11.967  0.2506E+01  0.2425E+02
  11.977  0.2543E+01  0.2428E+02
  11.987  0.2567E+01  0.2430E+02
  11.997  0.2571E+01  0.2433E+02
  12.007  0.2554E+01  0.2436E+02
  12.017  0.2514E+01  0.2438E+02
  12.027  0.2455E+01  0.2441E+02
  12.037  0.2382E+01  0.2443E+02
  12.047  0.2304E+01  0.2445E+02
  12.057  0.2227E+01  0.2447E+02
  12.067  0.2158E+01  0.2450E+02
  12.077  0.2100E+01  0.2452E+02
  12.087  0.2057E+01  0.2454E+02
  12.097  0.2028E+01  0.2456E+02
  12.107  0.2011E+01  0.2458E+02
  12.117  0.2003E+01  0.2460E+02
  12.127  0.2003E+01  0.2462E+02
  12.137  0.2007E+01  0.2464E+02
  12.147  0.2013E+01  0.2466E+02
  12.157  0.2019E+01  0.2468E+02
  12.167  0.2025E+01  0.2470E+02
  12.177  0.2029E+01  0.2472E+02
  12.187  0.2030E+01  0.2474E+02
  12.197  0.2027E+01  0.2476E+02
  12.207  0.2016E+01  0.2478E+02
  12.217  0.1997E+01  0.2480E+02
  12.227  0.1967E+01  0.2482E+02
  12.237  0.1923E+01  0.2484E+02
  12.247  0.1865E+01  0.2486E+02
  12.257  0.1793E+01  0.2488E+02
  12.267  0.1708E+01  0.2489E+02
  12.277  0.1617E+01  0.2491E+02
  12.287  0.1524E+01  0.2492E+02
  12.297  0.1438E+01  0.2494E+02
  12.307  0.1367E+01  0.2495E+02
  12.317  0.1319E+01  0.2497E+02
  12.327  0.1299E+01  0.2498E+02
  12.337  0.1314E+01  0.2499E+02
  12.347  0.1365E+01  0.2501E+02
  12.357  0.1454E+01  0.2502E+02
  12.367  0.1578E+01  0.2504E+02
  12.377  0.1735E+01  0.2505E+02
  12.387  0.1917E+01  0.2507E+02
  12.397  0.2117E+01  0.2509E+02
  12.407  0.2323E+01  0.2512E+02
  12.417  0.2522E+01  0.2514E+02
  12.427  0.2703E+01  0.2517E+02
  12.437  0.2853E+01  0.2520E+02
  12.447  0.2967E+01  0.2523E+02
  12.457  0.3041E+01  0.2526E+02
  12.467  0.3079E+01  0.2529E+02
  12.477  0.3086E+01  0.2532E+02
  12.487  0.3075E+01  0.2535E+02
  12.497  0.3056E+01  0.2538E+02
  12.507  0.3040E+01  0.2541E+02
  12.517  0.3035E+01  0.2544E+02
  12.527  0.3046E+01  0.2547E+02
  12.537  0.3069E+01  0.2550E+02
  12.547  0.3100E+01  0.2553E+02
  12.557  0.3128E+01  0.2556E+02
  12.567  0.3143E+01  0.2560E+02
  12.577  0.3134E+01  0.2563E+02
  12.587  0.3092E+01  0.2566E+02
  12.597  0.3015E+01  0.2569E+02
  12.607  0.2902E+01  0.2572E+02
  12.617  0.2761E+01  0.2574E+02
  12.627  0.2598E+01  0.2577E+02
  12.637  0.2424E+01  0.2580E+02
  12.647  0.2248E+01  0.2582E+02
  12.657  0.2078E+01  0.2584E+02
  12.667  0.1919E+01  0.2586E+02
  12.677  0.1774E+01  0.2588E+02
  12.687  0.1643E+01  0.2589E+02
  12.697  0.1529E+01  0.2591E+02
  12.707  0.1433E+01  0.2592E+02
  12.717  0.1356E+01  0.2593E+02
  12.727  0.1301E+01  0.2595E+02
  12.737  0.1269E+01  0.2596E+02
  12.747  0.1261E+01  0.2597E+02
  12.757  0.1274E+01  0.2599E+02
  12.767  0.1305E+01  0.2600E+02
  12.777  0.1348E+01  0.2601E+02
  12.787  0.1394E+01  0.2603E+02
  12.797  0.1437E+01  0.2604E+02
  12.807  0.1470E+01  0.2606E+02
  12.817  0.1489E+01  0.2607E+02
  12.827  0.1495E+01  0.2609E+02
  12.837  0.1489E+01  0.2610E+02
  12.847  0.1477E+01  0.2611E+02
  12.857  0.1464E+01  0.2613E+02
  12.867  0.1456E+01  0.2614E+02
  12.877  0.1458E+01  0.2616E+02
  12.887  0.1470E+01  0.2617E+02
  12.897  0.1492E+01  0.2619E+02
  12.907  0.1518E+01  0.2620E+02
  12.917  0.1545E+01  0.2622E+02
  12.927  0.1568E+01  0.2623E+02
  12.937  0.1584E+01  0.2625E+02
  12.947  0.1594E+01  0.2627E+02
  12.957  0.1599E+01  0.2628E+02
  12.967  0.1605E+01  0.2630E+02
  12.977  0.1617E+01  0.2631E+02
  12.987  0.1642E+01  0.2633E+02
  12.997  0.1684E+01  0.2635E+02
  13.007  0.1745E+01  0.2637E+02
  13.017  0.1822E+01  0.2638E+02
  13.027  0.1910E+01  0.2640E+02
  13.037  0.2000E+01  0.2642E+02
  13.047  0.2084E+01  0.2644E+02
  13.057  0.2151E+01  0.2647E+02
  13.067  0.2196E+01  0.2649E+02
  13.077  0.2214E+01  0.2651E+02
  13.087  0.2208E+01  0.2653E+02
  13.097  0.2181E+01  0.2655E+02
  13.107  0.2141E+01  0.2657E+02
  13.117  0.2097E+01  0.2660E+02
  13.127  0.2056E+01  0.2662E+02
  13.137  0.2027E+01  0.2664E+02
  13.147  0.2013E+01  0.2666E+02
  13.157  0.2016E+01  0.2668E+02
  13.167  0.2035E+01  0.2670E+02
  13.177  0.2064E+01  0.2672E+02
  13.187  0.2098E+01  0.2674E+02
  13.197  0.2129E+01  0.2676E+02
  13.207  0.2148E+01  0.2678E+02
  13.217  0.2150E+01  0.2680E+02
  13.227  0.2132E+01  0.2682E+02
  13.237  0.2095E+01  0.2685E+02
  13.247  0.2045E+01  0.2687E+02
  13.257  0.1988E+01  0.2689E+02
  13.267  0.1933E+01  0.2690E+02
  13.277  0.1889E+01  0.2692E+02
  13.287  0.1860E+01  0.2694E+02
  13.297  0.1848E+01  0.2696E+02
  13.307  0.1851E+01  0.2698E+02
  13.317  0.1861E+01  0.2700E+02
  13.327  0.1872E+01  0.2702E+02
  13.337  0.1876E+01  0.2704E+02
  13.347  0.1868E+01  0.2705E+02
  13.357  0.1845E+01  0.2707E+02
  13.367  0.1808E+01  0.2709E+02
  13.377  0.1761E+01  0.2711E+02
  13.387  0.1708E+01  0.2713E+02
  13.397  0.1655E+01  0.2714E+02
  13.407  0.1604E+01  0.2716E+02
  13.417  0.1560E+01  0.2717E+02
  13.427  0.1522E+01  0.2719E+02
  13.437  0.1491E+01  0.2720E+02
  13.447  0.1470E+01  0.2722E+02
  13.457  0.1460E+01  0.2723E+02
  13.467  0.1465E+01  0.2725E+02
  13.477  0.1488E+01  0.2726E+02
  13.487  0.1530E+01  0.2728E+02
  13.497  0.1591E+01  0.2729E+02
  13.507  0.1665E+01  0.2731E+02
  13.517  0.1745E+01  0.2733E+02
  13.527  0.1820E+01  0.2735E+02
  13.537  0.1879E+01  0.2736E+02
  13.547  0.1913E+01  0.2738E+02
  13.557  0.1916E+01  0.2740E+02
  13.567  0.1888E+01  0.2742E+02
  13.577  0.1832E+01  0.2744E+02
  13.587  0.1756E+01  0.2746E+02
  13.597  0.1672E+01  0.2747E+02
  13.607  0.1590E+01  0.2749E+02
  13.617  0.1523E+01  0.2751E+02
  13.627  0.1479E+01  0.2752E+02
  13.637  0.1466E+01  0.2754E+02
  13.647  0.1490E+01  0.2755E+02
  13.657  0.1554E+01  0.2757E+02
  13.667  0.1656E+01  0.2758E+02
  13.677  0.1794E+01  0.2760E+02
  13.687  0.1958E+01  0.2762E+02
  13.697  0.2139E+01  0.2764E+02
  13.707  0.2323E+01  0.2766E+02
  13.717  0.2497E+01  0.2769E+02
  13.727  0.2648E+01  0.2772E+02
  13.737  0.2767E+01  0.2774E+02
  13.747  0.2849E+01  0.2777E+02
  13.757  0.2894E+01  0.2780E+02
  13.767  0.2904E+01  0.2783E+02
  13.777  0.2888E+01  0.2786E+02
  13.787  0.2854E+01  0.2789E+02
  13.797  0.2811E+01  0.2792E+02
  13.807  0.2765E+01  0.2794E+02
  13.817  0.2724E+01  0.2797E+02
  13.827  0.2688E+01  0.2800E+02
  13.837  0.2658E+01  0.2802E+02
  13.847  0.2633E+01  0.2805E+02
  13.857  0.2610E+01  0.2808E+02
  13.867  0.2586E+01  0.2810E+02
  13.877  0.2559E+01  0.2813E+02
  13.887  0.2526E+01  0.2815E+02
  13.897  0.2485E+01  0.2818E+02
  13.907  0.2436E+01  0.2820E+02
  13.917  0.2377E+01  0.2823E+02
  13.927  0.2311E+01  0.2825E+02
  13.937  0.2238E+01  0.2827E+02
  13.947  0.2163E+01  0.2829E+02
  13.957  0.2090E+01  0.2831E+02
  13.967  0.2025E+01  0.2833E+02
  13.977  0.1974E+01  0.2835E+02
  13.987  0.1942E+01  0.2837E+02
  13.997  0.1936E+01  0.2839E+02
  14.007  0.1960E+01  0.2841E+02
  14.017  0.2014E+01  0.2843E+02
  14.027  0.2101E+01  0.2845E+02
  14.037  0.2218E+01  0.2848E+02
  14.047  0.2360E+01  0.2850E+02
  14.057  0.2520E+01  0.2852E+02
  14.067  0.2690E+01  0.2855E+02
  14.077  0.2860E+01  0.2858E+02
  14.087  0.3022E+01  0.2861E+02
  14.097  0.3166E+01  0.2864E+02
  14.107  0.3286E+01  0.2867E+02
  14.117  0.3379E+01  0.2871E+02
  14.127  0.3440E+01  0.2874E+02
  14.137  0.3469E+01  0.2878E+02
  14.147  0.3467E+01  0.2881E+02
  14.157  0.3434E+01  0.2885E+02
  14.167  0.3376E+01  0.2888E+02
  14.177  0.3298E+01  0.2891E+02
  14.187  0.3207E+01  0.2895E+02
  14.197  0.3112E+01  0.2898E+02
  14.207  0.3021E+01  0.2901E+02
  14.217  0.2941E+01  0.2904E+02
  14.227  0.2878E+01  0.2906E+02
  14.237  0.2835E+01  0.2909E+02
  14.247  0.2812E+01  0.2912E+02
  14.257  0.2807E+01  0.2915E+02
  14.267  0.2813E+01  0.2918E+02
  14.277  0.2827E+01  0.2921E+02
  14.287  0.2841E+01  0.2923E+02
  14.297  0.2852E+01  0.2926E+02
  14.307  0.2857E+01  0.2929E+02
  14.317  0.2854E+01  0.2932E+02
  14.327  0.2844E+01  0.2935E+02
  14.337  0.2829E+01  0.2938E+02
  14.347  0.2813E+01  0.2940E+02
  14.357  0.2798E+01  0.2943E+02
  14.367  0.2788E+01  0.2946E+02
  14.377  0.2785E+01  0.2949E+02
  14.387  0.2788E+01  0.2952E+02
  14.397  0.2797E+01  0.2954E+02
  14.407  0.2810E+01  0.2957E+02
  14.417  0.2822E+01  0.2960E+02
  14.427  0.2831E+01  0.2963E+02
  14.437  0.2837E+01  0.2966E+02
  14.447  0.2839E+01  0.2969E+02
  14.457  0.2838E+01  0.2971E+02
  14.467  0.2835E+01  0.2974E+02
  14.477  0.2832E+01  0.2977E+02
  14.487  0.2829E+01  0.2980E+02
  14.497  0.2826E+01  0.2983E+02
  14.507  0.2821E+01  0.2986E+02
  14.517  0.2813E+01  0.2988E+02
  14.527  0.2801E+01  0.2991E+02
  14.537  0.2785E+01  0.2994E+02
  14.547  0.2763E+01  0.2997E+02
  14.557  0.2735E+01  0.2999E+02
  14.567  0.2702E+01  0.3002E+02
  14.577  0.2660E+01  0.3005E+02
  14.587  0.2610E+01  0.3007E+02
  14.597  0.2550E+01  0.3010E+02
  14.607  0.2482E+01  0.3012E+02
  14.617  0.2409E+01  0.3015E+02
  14.627  0.2337E+01  0.3017E+02
  14.637  0.2271E+01  0.3019E+02
  14.647  0.2220E+01  0.3022E+02
  14.657  0.2191E+01  0.3024E+02
  14.667  0.2187E+01  0.3026E+02
  14.677  0.2209E+01  0.3028E+02
  14.687  0.2254E+01  0.3031E+02
  14.697  0.2314E+01  0.3033E+02
  14.707  0.2379E+01  0.3035E+02
  14.717  0.2438E+01  0.3038E+02
  14.727  0.2480E+01  0.3040E+02
  14.737  0.2498E+01  0.3043E+02
  14.747  0.2486E+01  0.3045E+02
  14.757  0.2444E+01  0.3048E+02
  14.767  0.2375E+01  0.3050E+02
  14.777  0.2283E+01  0.3052E+02
  14.787  0.2176E+01  0.3054E+02
  14.797  0.2060E+01  0.3056E+02
  14.807  0.1945E+01  0.3058E+02
  14.817  0.1835E+01  0.3060E+02
  14.827  0.1737E+01  0.3062E+02
  14.837  0.1655E+01  0.3064E+02
  14.847  0.1591E+01  0.3065E+02
  14.857  0.1547E+01  0.3067E+02
  14.867  0.1521E+01  0.3068E+02
  14.877  0.1510E+01  0.3070E+02
  14.887  0.1509E+01  0.3071E+02
  14.897  0.1511E+01  0.3073E+02
  14.907  0.1511E+01  0.3074E+02
  14.917  0.1504E+01  0.3076E+02
  14.927  0.1487E+01  0.3077E+02
  14.937  0.1461E+01  0.3079E+02
  14.947  0.1431E+01  0.3080E+02
  14.957  0.1403E+01  0.3082E+02
  14.967  0.1386E+01  0.3083E+02
  14.977  0.1386E+01  0.3084E+02
  14.987  0.1407E+01  0.3086E+02
  14.997  0.1449E+01  0.3087E+02
  15.007  0.1506E+01  0.3089E+02
  15.017  0.1570E+01  0.3090E+02
  15.027  0.1628E+01  0.3092E+02
  15.037  0.1670E+01  0.3094E+02
  15.047  0.1688E+01  0.3095E+02
  15.057  0.1679E+01  0.3097E+02
  15.067  0.1642E+01  0.3099E+02
  15.077  0.1584E+01  0.3100E+02
  15.087  0.1512E+01  0.3102E+02
  15.097  0.1435E+01  0.3103E+02
  15.107  0.1360E+01  0.3105E+02
  15.117  0.1291E+01  0.3106E+02
  15.127  0.1228E+01  0.3107E+02
  15.137  0.1170E+01  0.3108E+02
  15.147  0.1114E+01  0.3109E+02
  15.157  0.1057E+01  0.3110E+02
  15.167  0.9975E+00  0.3111E+02
  15.177  0.9363E+00  0.3112E+02
  15.187  0.8768E+00  0.3113E+02
  15.197  0.8241E+00  0.3114E+02
  15.207  0.7835E+00  0.3115E+02
  15.217  0.7594E+00  0.3116E+02
  15.227  0.7544E+00  0.3116E+02
  15.237  0.7689E+00  0.3117E+02
  15.247  0.8006E+00  0.3118E+02
  15.257  0.8457E+00  0.3119E+02
  15.267  0.8993E+00  0.3120E+02
  15.277  0.9561E+00  0.3121E+02
  15.287  0.1011E+01  0.3122E+02
  15.297  0.1061E+01  0.3123E+02
  15.307  0.1102E+01  0.3124E+02
  15.317  0.1132E+01  0.3125E+02
  15.327  0.1150E+01  0.3126E+02
  15.337  0.1155E+01  0.3127E+02
  15.347  0.1147E+01  0.3128E+02
  15.357  0.1127E+01  0.3129E+02
  15.367  0.1096E+01  0.3131E+02
  15.377  0.1058E+01  0.3132E+02
  15.387  0.1014E+01  0.3133E+02
  15.397  0.9690E+00  0.3134E+02
  15.407  0.9246E+00  0.3135E+02
  15.417  0.8834E+00  0.3135E+02
  15.427  0.8473E+00  0.3136E+02
  15.437  0.8179E+00  0.3137E+02
  15.447  0.7959E+00  0.3138E+02
  15.457  0.7819E+00  0.3139E+02
  15.467  0.7755E+00  0.3139E+02
  15.477  0.7757E+00  0.3140E+02
  15.487  0.7809E+00  0.3141E+02
  15.497  0.7886E+00  0.3142E+02
  15.507  0.7966E+00  0.3143E+02
  15.517  0.8025E+00  0.3143E+02
  15.527  0.8050E+00  0.3144E+02
  15.537  0.8039E+00  0.3145E+02
  15.547  0.8000E+00  0.3146E+02
  15.557  0.7950E+00  0.3147E+02
  15.567  0.7910E+00  0.3147E+02
  15.577  0.7898E+00  0.3148E+02
  15.587  0.7921E+00  0.3149E+02
  15.597  0.7977E+00  0.3150E+02
  15.607  0.8049E+00  0.3151E+02
  15.617  0.8114E+00  0.3151E+02
  15.627  0.8142E+00  0.3152E+02
  15.637  0.8108E+00  0.3153E+02
  15.647  0.7992E+00  0.3154E+02
  15.657  0.7789E+00  0.3155E+02
  15.667  0.7502E+00  0.3155E+02
  15.677  0.7149E+00  0.3156E+02
  15.687  0.6754E+00  0.3157E+02
  15.697  0.6346E+00  0.3157E+02
  15.707  0.5952E+00  0.3158E+02
  15.717  0.5598E+00  0.3158E+02
  15.727  0.5300E+00  0.3159E+02
  15.737  0.5068E+00  0.3160E+02
  15.747  0.4904E+00  0.3160E+02
  15.757  0.4805E+00  0.3160E+02
  15.767  0.4767E+00  0.3161E+02
  15.777  0.4783E+00  0.3161E+02
  15.787  0.4847E+00  0.3162E+02
  15.797  0.4956E+00  0.3162E+02
  15.807  0.5107E+00  0.3163E+02
  15.817  0.5295E+00  0.3163E+02
  15.827  0.5511E+00  0.3164E+02
  15.837  0.5741E+00  0.3165E+02
  15.847  0.5966E+00  0.3165E+02
  15.857  0.6164E+00  0.3166E+02
  15.867  0.6312E+00  0.3166E+02
  15.877  0.6393E+00  0.3167E+02
  15.887  0.6402E+00  0.3168E+02
  15.897  0.6345E+00  0.3168E+02
  15.907  0.6244E+00  0.3169E+02
  15.917  0.6130E+00  0.3170E+02
  15.927  0.6040E+00  0.3170E+02
  15.937  0.6004E+00  0.3171E+02
  15.947  0.6042E+00  0.3171E+02
  15.957  0.6152E+00  0.3172E+02
  15.967  0.6316E+00  0.3173E+02
  15.977  0.6501E+00  0.3173E+02
  15.987  0.6663E+00  0.3174E+02
  15.997  0.6764E+00  0.3175E+02
  16.007  0.6773E+00  0.3175E+02
  16.017  0.6674E+00  0.3176E+02
  16.027  0.6468E+00  0.3177E+02
  16.037  0.6166E+00  0.3177E+02
  16.047  0.5790E+00  0.3178E+02
  16.057  0.5364E+00  0.3178E+02
  16.067  0.4915E+00  0.3179E+02
  16.077  0.4465E+00  0.3179E+02
  16.087  0.4035E+00  0.3180E+02
  16.097  0.3643E+00  0.3180E+02
  16.107  0.3300E+00  0.3180E+02
  16.117  0.3014E+00  0.3181E+02
  16.127  0.2784E+00  0.3181E+02
  16.137  0.2609E+00  0.3181E+02
  16.147  0.2478E+00  0.3181E+02
  16.157  0.2382E+00  0.3182E+02
  16.167  0.2307E+00  0.3182E+02
  16.177  0.2241E+00  0.3182E+02
  16.187  0.2172E+00  0.3182E+02
  16.197  0.2091E+00  0.3183E+02
  16.207  0.1987E+00  0.3183E+02
  16.217  0.1857E+00  0.3183E+02
  16.227  0.1699E+00  0.3183E+02
  16.237  0.1516E+00  0.3183E+02
  16.247  0.1315E+00  0.3183E+02
  16.257  0.1108E+00  0.3184E+02
  16.267  0.9059E-01  0.3184E+02
  16.277  0.7229E-01  0.3184E+02
  16.287  0.5702E-01  0.3184E+02
  16.297  0.4565E-01  0.3184E+02
  16.307  0.3880E-01  0.3184E+02
  16.317  0.3676E-01  0.3184E+02
  16.327  0.3955E-01  0.3184E+02
  16.337  0.4688E-01  0.3184E+02
  16.347  0.5815E-01  0.3184E+02
  16.357  0.7237E-01  0.3184E+02
  16.367  0.8824E-01  0.3184E+02
  16.377  0.1042E+00  0.3184E+02
  16.387  0.1185E+00  0.3184E+02
  16.397  0.1296E+00  0.3185E+02
  16.407  0.1365E+00  0.3185E+02
  16.417  0.1386E+00  0.3185E+02
  16.427  0.1365E+00  0.3185E+02
  16.437  0.1313E+00  0.3185E+02
  16.447  0.1246E+00  0.3185E+02
  16.457  0.1183E+00  0.3185E+02
  16.467  0.1141E+00  0.3185E+02
  16.477  0.1131E+00  0.3186E+02
  16.487  0.1155E+00  0.3186E+02
  16.497  0.1207E+00  0.3186E+02
  16.507  0.1274E+00  0.3186E+02
  16.517  0.1338E+00  0.3186E+02
  16.527  0.1379E+00  0.3186E+02
  16.537  0.1382E+00  0.3186E+02
  16.547  0.1340E+00  0.3186E+02
  16.557  0.1252E+00  0.3187E+02
  16.567  0.1124E+00  0.3187E+02
  16.577  0.9676E-01  0.3187E+02
  16.587  0.7990E-01  0.3187E+02
  16.597  0.6324E-01  0.3187E+02
  16.607  0.4796E-01  0.3187E+02
  16.617  0.3488E-01  0.3187E+02
  16.627  0.2437E-01  0.3187E+02
  16.637  0.1645E-01  0.3187E+02
  16.647  0.1093E-01  0.3187E+02
  16.657  0.7533E-02  0.3187E+02
  16.667  0.5995E-02  0.3187E+02
  16.677  0.6194E-02  0.3187E+02
  16.687  0.8185E-02  0.3187E+02
  16.697  0.1221E-01  0.3187E+02
  16.707  0.1865E-01  0.3187E+02
  16.717  0.2798E-01  0.3187E+02
  16.727  0.4063E-01  0.3187E+02
  16.737  0.5688E-01  0.3187E+02
  16.747  0.7669E-01  0.3187E+02
  16.757  0.9960E-01  0.3187E+02
  16.767  0.1247E+00  0.3188E+02
  16.777  0.1507E+00  0.3188E+02
  16.787  0.1759E+00  0.3188E+02
  16.797  0.1985E+00  0.3188E+02
  16.807  0.2167E+00  0.3188E+02
  16.817  0.2289E+00  0.3189E+02
  16.827  0.2343E+00  0.3189E+02
  16.837  0.2323E+00  0.3189E+02
  16.847  0.2230E+00  0.3189E+02
  16.857  0.2073E+00  0.3189E+02
  16.867  0.1865E+00  0.3190E+02
  16.877  0.1623E+00  0.3190E+02
  16.887  0.1365E+00  0.3190E+02
  16.897  0.1107E+00  0.3190E+02
  16.907  0.8669E-01  0.3190E+02
  16.917  0.6538E-01  0.3190E+02
  16.927  0.4748E-01  0.3190E+02
  16.937  0.3318E-01  0.3190E+02
  16.947  0.2230E-01  0.3190E+02
  16.957  0.1444E-01  0.3190E+02
  16.967  0.9061E-02  0.3190E+02
  16.977  0.5638E-02  0.3190E+02
  16.987  0.3739E-02  0.3190E+02
  16.997  0.3091E-02  0.3190E+02
  17.007  0.3623E-02  0.3190E+02
  17.017  0.5493E-02  0.3190E+02
  17.027  0.9098E-02  0.3190E+02
  17.037  0.1506E-01  0.3190E+02
  17.047  0.2416E-01  0.3190E+02
  17.057  0.3725E-01  0.3190E+02
  17.067  0.5506E-01  0.3190E+02
  17.077  0.7796E-01  0.3191E+02
  17.087  0.1057E+00  0.3191E+02
  17.097  0.1373E+00  0.3191E+02
  17.107  0.1709E+00  0.3191E+02
  17.117  0.2036E+00  0.3191E+02
  17.127  0.2323E+00  0.3191E+02
  17.137  0.2538E+00  0.3192E+02
  17.147  0.2657E+00  0.3192E+02
  17.157  0.2663E+00  0.3192E+02
  17.167  0.2557E+00  0.3192E+02
  17.177  0.2351E+00  0.3193E+02
  17.187  0.2070E+00  0.3193E+02
  17.197  0.1746E+00  0.3193E+02
  17.207  0.1410E+00  0.3193E+02
  17.217  0.1092E+00  0.3193E+02
  17.227  0.8100E-01  0.3193E+02
  17.237  0.5775E-01  0.3193E+02
  17.247  0.3980E-01  0.3193E+02
  17.257  0.2699E-01  0.3194E+02
  17.267  0.1887E-01  0.3194E+02
  17.277  0.1494E-01  0.3194E+02
  17.287  0.1488E-01  0.3194E+02
  17.297  0.1864E-01  0.3194E+02
  17.307  0.2642E-01  0.3194E+02
  17.317  0.3861E-01  0.3194E+02
  17.327  0.5560E-01  0.3194E+02
  17.337  0.7751E-01  0.3194E+02
  17.347  0.1040E+00  0.3194E+02
  17.357  0.1341E+00  0.3194E+02
  17.367  0.1659E+00  0.3194E+02
  17.377  0.1971E+00  0.3194E+02
  17.387  0.2249E+00  0.3195E+02
  17.397  0.2463E+00  0.3195E+02
  17.407  0.2593E+00  0.3195E+02
  17.417  0.2624E+00  0.3195E+02
  17.427  0.2558E+00  0.3196E+02
  17.437  0.2411E+00  0.3196E+02
  17.447  0.2208E+00  0.3196E+02
  17.457  0.1985E+00  0.3196E+02
  17.467  0.1779E+00  0.3196E+02
  17.477  0.1626E+00  0.3197E+02
  17.487  0.1550E+00  0.3197E+02
  17.497  0.1566E+00  0.3197E+02
  17.507  0.1672E+00  0.3197E+02
  17.517  0.1850E+00  0.3197E+02
  17.527  0.2074E+00  0.3198E+02
  17.537  0.2305E+00  0.3198E+02
  17.547  0.2504E+00  0.3198E+02
  17.557  0.2636E+00  0.3198E+02
  17.567  0.2676E+00  0.3199E+02
  17.577  0.2611E+00  0.3199E+02
  17.587  0.2446E+00  0.3199E+02
  17.597  0.2198E+00  0.3199E+02
  17.607  0.1894E+00  0.3199E+02
  17.617  0.1564E+00  0.3200E+02
  17.627  0.1238E+00  0.3200E+02
  17.637  0.9394E-01  0.3200E+02
  17.647  0.6830E-01  0.3200E+02
  17.657  0.4759E-01  0.3200E+02
  17.667  0.3178E-01  0.3200E+02
  17.677  0.2033E-01  0.3200E+02
  17.687  0.1247E-01  0.3200E+02
  17.697  0.7327E-02  0.3200E+02
  17.707  0.4126E-02  0.3200E+02
  17.717  0.2226E-02  0.3200E+02
  17.727  0.1151E-02  0.3200E+02
  17.737  0.5704E-03  0.3200E+02
  17.747  0.2708E-03  0.3200E+02
  17.757  0.1232E-03  0.3200E+02
  17.767  0.5372E-04  0.3200E+02
  17.777  0.2244E-04  0.3200E+02
